; WAVELENGTH 50.20000 50.20000 60.20000 60.20000 70.20000 70.20000
190.13558 45.74309 168.36886 55.11351 170.81765 56.03301 118.52958 
190.59492 47.53618 187.30627 51.39424 188.23138 59.31680 134.17020 
191.05422 47.37004 185.94586 51.26958 172.11978 60.60230 117.52645 
191.51348 47.43735 187.30295 52.02393 173.36390 55.50621 117.33932 
191.97269 47.06779 200.36111 51.43723 173.75108 56.79514 117.10291 
192.43185 45.43783 202.40732 53.24003 193.23418 57.58624 120.96516 
192.89096 46.50742 181.58228 52.41913 158.53678 55.95466 106.03752 
193.35003 46.79688 187.20112 52.80566 169.82567 57.53773 111.15702 
193.80905 46.74297 192.34531 52.02651 168.93016 54.24841 107.18885 
194.26803 47.22915 182.43138 52.19132 154.63453 53.52888 102.56603 
194.72696 46.13682 180.71299 51.71351 149.11166 52.15014 99.56959 
195.18585 48.01905 178.97113 53.24040 150.10073 53.06351 99.31308 
195.64468 46.94933 180.53458 53.78529 151.38196 51.92841 94.09449 
196.10348 48.34815 179.95968 52.89333 150.21178 51.59306 93.38571 
196.56222 48.67082 177.33153 51.93635 145.13671 50.32404 90.90946 
197.02092 48.77536 177.99297 52.59504 145.37077 49.89459 88.86422 
197.47958 48.74459 176.90803 51.56758 145.65078 49.95462 88.26407 
197.93819 47.96402 180.95180 51.42238 140.81631 49.63645 85.99280 
198.39675 49.19949 173.05004 51.89712 137.29825 49.93128 85.86544 
198.85527 48.86634 174.09546 50.97800 135.81857 48.61566 82.91895 
199.31375 48.48374 164.99453 50.49691 130.16497 48.61358 80.94341 
199.77218 48.44667 170.16191 50.83184 131.83914 48.00955 83.08752 
200.23056 49.22850 169.28879 49.95616 129.71478 47.24818 80.55436 
200.68890 49.16886 165.40559 49.76913 126.08516 46.88870 79.87771 
201.14719 48.82430 164.44197 49.14342 124.14502 46.03245 79.50122 
201.60544 48.83490 160.04603 49.24399 122.64652 46.33714 78.87417 
202.06364 48.90247 161.41488 49.54352 121.43091 46.28035 77.97605 
202.52180 49.23688 160.03701 48.85955 121.79052 45.59304 76.35729 
202.97991 48.77191 159.33137 48.36446 118.92437 45.58340 76.32596 
203.43798 48.96948 158.24201 48.50156 118.14280 44.91212 76.20367 
203.89600 48.75938 157.78347 47.88066 117.32851 45.07869 75.16681 
204.35398 48.49286 155.59731 47.63944 116.60467 45.10537 75.68572 
204.81191 48.58446 153.45751 47.43858 114.85685 44.58147 75.15318 
205.26980 48.55540 151.95107 47.39224 114.12800 44.50154 75.14339 
205.72765 48.27628 148.66151 46.84915 112.76028 43.98561 74.79820 
206.18545 48.47256 150.38595 46.45506 111.96597 43.62469 74.55651 
206.64320 48.25166 148.40149 46.32731 111.38153 43.73892 74.23475 
207.10092 47.84607 147.45526 45.87854 110.75833 43.56100 74.13004 
207.55858 47.65465 145.33368 45.69319 109.60418 42.97884 74.03030 
208.01621 47.72261 145.74228 45.41197 109.11377 42.82740 73.10600 
208.47379 47.55033 143.62221 45.26883 109.49284 42.87420 73.36782 
208.93132 47.43054 142.94194 44.92270 108.13930 42.88740 73.16449 
209.38881 47.20854 142.37264 44.82356 107.42360 42.63185 74.42160 
209.84626 47.09449 141.80031 44.55861 107.82255 42.54536 73.90839 
210.30366 46.84071 140.00710 44.28785 107.08389 42.36122 73.73476 
210.76102 46.37241 139.70590 44.09005 106.85190 42.34801 73.99572 
211.21834 46.49984 138.90211 43.88481 106.45004 42.07062 73.92237 
211.67561 46.23505 137.97508 43.81411 106.22392 42.04226 74.21377 
212.13284 46.09424 137.87696 43.74020 105.57535 41.73839 74.49296 
212.59002 45.86548 137.56555 43.32498 105.57235 41.65049 74.71697 
213.04716 45.83195 137.24670 43.25258 105.60684 41.70764 74.85215 
213.50426 45.35865 136.43505 43.04027 105.62091 41.50425 75.30511 
213.96131 45.55633 135.65482 42.95578 105.52337 41.37724 74.90883 
214.41833 45.19017 134.63816 42.91249 105.54510 41.35313 75.17252 
214.87529 45.09267 134.69481 42.61124 105.18220 40.94400 75.90914 
215.33222 44.89435 133.63076 42.57059 105.26819 40.82996 75.97255 
215.78910 44.75287 133.94407 42.23888 105.07260 40.95120 76.44663 
216.24594 44.55342 133.44897 42.18897 105.37734 40.68234 76.62300 
216.70273 44.53826 133.27311 41.98605 105.43115 40.53875 77.03577 
217.15949 44.29470 133.11625 41.94266 105.63402 40.40903 77.31141 
217.61620 44.11842 132.65789 41.72907 105.81233 40.39922 77.71774 
218.07286 44.11305 132.43440 41.67944 106.12673 40.23965 77.89885 
218.52949 43.86938 131.97662 41.66072 106.20963 40.13378 78.52992 
218.98607 43.78559 132.04138 41.37731 106.43929 40.08335 78.79793 
219.44261 43.70224 131.82091 41.25324 106.67875 39.85993 79.08472 
219.89910 43.50241 131.88647 41.25258 106.55129 39.81901 79.93256 
220.35556 43.33898 131.37929 41.01162 106.61003 39.70542 80.07155 
220.81197 43.33732 131.22070 40.89493 106.86221 39.70619 80.65776 
221.26834 43.12774 131.27674 40.93655 107.20832 39.49836 80.78888 
221.72466 42.96890 131.48216 40.91339 107.73131 39.38649 81.46095 
222.18095 42.96477 131.55410 40.73851 107.84016 39.46021 81.66145 
222.63719 42.77478 131.34110 40.72868 108.20109 39.18617 82.24438 
223.09339 42.66165 131.37334 40.45251 108.55268 39.09018 82.97606 
223.54954 42.60298 131.45733 40.41790 108.86315 38.92001 83.64667 
224.00566 42.53549 131.63803 40.29886 109.25604 38.94332 84.13664 
224.46173 42.47623 131.21429 40.25989 109.81710 38.64624 84.85991 
224.91776 42.26648 131.67135 40.21878 110.14832 38.77906 85.18258 
225.37375 42.10966 131.82985 40.06835 110.51371 38.57505 85.69465 
225.82970 41.95686 131.99006 39.92774 110.85253 38.49801 86.40573 
226.28561 42.15649 132.35342 39.77636 111.27440 38.37913 87.01210 
226.74147 41.87551 132.28846 39.71714 111.62593 38.18645 87.61697 
227.19729 41.82375 132.14164 39.62979 112.16848 38.18574 88.06834 
227.65308 41.76795 132.56277 39.52966 112.45455 37.83165 88.66668 
228.10881 41.67576 132.89935 39.41653 112.94933 37.83604 89.26544 
228.56451 41.64098 132.78962 39.47172 113.42765 37.63192 89.76752 
229.02017 41.56679 132.82741 39.32839 113.69003 37.49208 90.48501 
229.47578 41.51224 133.11167 39.25865 114.08945 37.30101 91.17093 
229.93136 41.35161 133.50894 39.09262 114.60748 37.15988 91.59323 
230.38689 41.28425 133.65129 39.00069 115.12029 37.13666 92.13752 
230.84238 41.16153 133.84538 38.89510 115.64454 36.95213 92.96574 
231.29783 41.11457 134.04213 38.76782 116.07339 36.91387 93.66691 
231.75324 40.96037 134.27355 38.83316 116.34457 36.65389 93.88708 
232.20861 40.94322 134.44399 38.60700 116.86845 36.45883 94.50665 
232.66394 40.88997 134.94105 38.59232 117.13106 36.32161 95.41602 
233.11923 40.77026 135.28833 38.42333 117.63965 36.29473 96.04894 
233.57447 40.64536 135.21242 38.51650 118.05509 36.19892 96.46585 
234.02968 40.63811 135.44880 38.35016 118.43160 36.03002 97.19934 
234.48484 40.71356 135.83526 38.30388 118.78560 35.91958 97.70395 
234.93996 40.53486 135.93089 38.24667 119.25552 35.93769 98.08265 
235.39505 40.53481 135.76216 38.14796 119.45536 35.80633 98.59584 
235.85009 40.50046 136.15075 38.10840 119.91852 35.70776 99.57102 
236.30509 40.43855 136.56146 38.07981 120.49018 35.55574 99.95487 
236.76005 40.50573 136.80147 38.05038 120.91629 35.50115 100.74181 
237.21497 40.42787 136.92231 37.97106 121.34951 35.40820 101.25891 
237.66986 40.36394 137.26033 37.96546 121.76407 35.27778 102.07088 
238.12470 40.40410 137.67908 37.93122 122.47132 35.26967 102.61029 
238.57950 40.40784 137.82459 37.90905 122.73680 35.17812 103.23280 
239.03426 40.27997 138.21240 37.88101 122.94170 35.04886 103.91992 
239.48898 40.24657 138.32644 37.87159 123.67903 35.03854 104.69820 
239.94366 40.24155 138.69673 37.82472 124.19713 34.90863 105.33960 
240.39830 40.27543 138.95166 37.89289 124.59112 34.93500 105.72666 
240.85290 40.19988 139.32107 37.80616 125.01018 34.86591 106.57740 
241.30746 40.30071 139.44756 37.86583 125.42911 34.75558 107.28724 
241.76198 40.33356 139.89404 37.84192 125.97726 34.80950 108.13769 
242.21646 40.21629 140.28149 37.70971 126.70801 34.76957 108.84359 
242.67090 40.24058 140.51030 37.82852 126.91871 34.70694 109.61185 
243.12530 40.26210 140.47365 37.82306 127.70604 34.71103 110.43192 
243.57967 40.25600 141.15139 37.97254 128.01248 34.63412 111.17863 
244.03399 40.24467 141.10473 37.84034 128.55162 34.56147 112.01869 
244.48827 40.22236 141.85279 37.85516 129.00457 34.53153 112.67325 
244.94251 40.25300 142.09686 37.83650 129.62373 34.48308 113.56351 
245.39672 40.24237 142.06725 37.85066 130.15905 34.47174 114.45775 
245.85088 40.23451 142.54145 37.83472 130.59855 34.33181 115.28685 
246.30501 40.32820 143.00877 37.86849 131.12961 34.33880 115.89152 
246.75910 40.33418 143.36806 37.88258 132.11354 34.27742 116.94721 
247.21314 40.35029 143.58897 37.75825 132.50622 34.30382 117.87433 
247.66715 40.32015 144.01179 37.85091 132.94631 34.24130 118.84606 
248.12112 40.34760 144.39903 37.91913 133.21031 34.23131 119.69358 
248.57505 40.31866 144.48895 37.91611 133.82203 34.19267 120.64314 
249.02894 40.45414 144.93482 37.89944 134.55322 34.22329 121.33345 
249.48279 40.30943 145.55180 37.97452 135.16976 34.19360 122.25769 
249.93661 40.42113 145.70149 37.92050 135.71987 34.08795 123.26803 
250.39038 40.39434 146.00405 37.95389 136.18290 34.15625 124.45789 
250.84412 40.50083 146.43944 38.04274 136.84991 34.09559 125.44903 
251.29782 40.48976 146.98570 37.96150 137.47316 34.06289 126.27032 
251.75148 40.56189 147.41571 37.96074 138.15588 34.15351 127.07826 
252.20510 40.56494 147.56047 37.99984 138.50512 33.98789 128.22689 
252.65868 40.47149 147.77833 38.03515 139.18036 34.06300 129.10952 
253.11222 40.64982 148.16010 38.03108 139.73948 34.03819 129.93745 
253.56573 40.48642 148.63773 38.05082 140.51024 33.97788 130.82430 
254.01919 40.61062 149.03405 38.03741 140.84151 34.00211 132.19939 
254.47262 40.56825 149.33106 38.08459 141.50358 34.00890 133.33635 
254.92601 40.61933 149.67735 38.12349 142.48642 34.10782 133.90240 
255.37937 40.63707 150.08639 38.12946 143.00583 33.98311 134.94903 
255.83268 40.63995 150.42643 38.13687 143.55504 33.93100 136.06543 
256.28596 40.63214 150.86698 38.12207 143.97687 33.90483 137.18814 
256.73919 40.64585 151.27394 38.24795 144.73561 33.91887 138.27665 
257.19239 40.65220 151.48940 38.15811 145.25600 33.94577 139.45952 
257.64556 40.66218 151.95765 38.24162 145.91068 33.88140 140.38891 
258.09868 40.75944 152.36073 38.28661 146.29526 33.95650 141.30741 
258.55177 40.82057 152.88243 38.32866 147.27931 33.92096 142.56301 
259.00481 40.73339 153.09937 38.28518 147.88934 33.79982 143.78561 
259.45783 40.81514 153.60070 38.30953 148.50029 33.83470 144.82239 
259.91080 40.81092 154.08417 38.35138 149.12013 33.88984 146.07660 
260.36374 40.81735 154.38468 38.31400 149.75367 33.85552 146.80400 
260.81663 40.85161 154.52475 38.37765 150.31376 33.97010 148.07952 
261.26949 40.90552 154.84830 38.36653 150.98285 33.92430 148.90023 
261.72232 40.98503 155.43770 38.51245 151.59697 33.97417 150.35683 
262.17510 40.92909 155.82087 38.38279 152.15942 33.96121 151.18973 
262.62785 40.88123 155.98013 38.45028 152.99642 34.02097 152.53431 
263.08056 40.96504 156.47331 38.48146 153.53225 33.97798 153.74749 
263.53324 40.96917 156.96112 38.50010 153.98989 34.13252 154.58071 
263.98587 40.99378 157.27490 38.56090 154.94755 34.08492 155.54581 
264.43847 41.06661 157.83326 38.57141 155.39608 34.14711 157.14074 
264.89104 41.06453 157.97747 38.60279 156.19053 34.00109 157.83205 
265.34356 41.10809 158.31664 38.63344 156.53323 34.14369 159.14260 
265.79605 41.08821 158.94566 38.62306 157.42623 34.23507 160.53173 
266.24850 41.07457 159.47047 38.63562 157.85868 34.25768 161.78834 
266.70092 41.13865 159.45658 38.71497 158.65797 34.17773 162.61719 
267.15330 41.09971 160.07694 38.58855 159.38467 34.22536 164.23770 
267.60564 41.15474 160.59343 38.75204 160.28170 34.19897 165.46552 
268.05794 41.18444 160.88513 38.73011 160.75666 34.22809 166.24559 
268.51021 41.18784 161.40144 38.78900 161.43099 34.27803 167.89669 
268.96244 41.20606 161.46647 38.73986 161.99566 34.22661 168.99704 
269.41464 41.21579 162.72503 38.70552 162.89682 34.33494 170.68056 
269.86680 41.22336 162.65409 38.83043 163.50383 34.29751 171.42402 
270.31892 41.22278 163.23492 38.78592 164.31565 34.29916 172.64542 
270.77101 41.22140 163.87484 38.68055 165.24224 34.34888 173.96922 
271.22305 41.20619 163.89413 38.83676 165.71697 34.27295 175.21906 
271.67507 41.21963 164.29778 38.73427 166.29917 34.26469 176.15420 
272.12704 41.12916 164.45370 38.72964 166.93468 34.32365 177.58459 
272.57898 41.23689 165.05872 38.84910 167.66352 34.33939 178.91057 
273.03089 41.19735 165.74896 38.76428 168.51665 34.38034 179.70528 
273.48276 41.19361 166.44035 38.77452 169.53251 34.38349 181.51919 
273.93459 41.22070 166.69659 38.82304 169.92493 34.39219 182.70579 
274.38639 41.21619 166.93623 38.73948 170.55844 34.33925 183.86350 
274.83815 41.19360 167.61468 38.67233 171.14510 34.41846 184.90187 
275.28987 41.13145 167.81105 38.76049 172.02833 34.39839 186.25024 
275.74156 41.18555 168.02048 38.66738 172.75355 34.36142 187.46198 
276.19321 41.12713 168.54354 38.71676 173.48624 34.25165 188.46525 
276.64483 41.11929 169.30178 38.61431 174.33021 34.23974 189.84011 
277.09641 41.12755 169.01271 38.65783 174.40165 34.28673 190.08817 
277.54796 41.17111 169.53813 38.59946 175.07643 34.31623 191.61370 
277.99947 41.10394 170.00818 38.60708 175.68550 34.21533 192.81051 
278.45094 41.06001 170.60063 38.50621 176.35353 34.24209 194.12158 
278.90238 41.05768 170.69221 38.53239 176.86146 34.16278 194.69582 
279.35378 41.04183 171.15123 38.43642 177.55179 34.17224 195.96263 
279.80515 41.00546 171.37195 38.40412 177.92241 34.11762 196.97382 
280.25648 41.01471 171.98141 38.49229 178.91274 34.12851 197.84304 
280.70778 41.02010 172.49549 38.33739 179.66933 34.22910 199.23375 
281.15904 40.92957 172.50128 38.40154 180.03321 34.09211 199.96993 
281.61027 40.87571 173.52541 38.32419 180.68585 34.19107 201.49551 
282.06146 40.97566 173.36873 38.43485 181.48350 34.18219 202.50374 
282.51262 40.94599 173.90789 38.31455 182.27631 34.14468 203.68147 
282.96374 40.91835 174.08599 38.27900 182.53572 34.15515 204.18256 
283.41483 40.88878 174.47534 38.23221 183.05621 34.16314 205.40674 
283.86588 40.87893 175.19261 38.18184 184.27354 34.20041 206.44928 
284.31689 40.84841 175.21107 38.12333 184.47252 34.10173 207.36986 
284.76787 40.79971 175.38874 38.10622 184.91962 33.94886 208.23752 
285.21882 40.78198 175.96054 38.01203 185.13862 33.99589 209.24562 
285.66973 40.75651 176.80372 38.03396 186.52142 33.95485 210.69930 
286.12061 40.69634 177.08488 38.00430 186.94644 33.86604 211.48556 
286.57145 40.70438 176.85698 37.95743 187.07849 33.92511 212.08785 
287.02226 40.65420 177.72167 37.93969 188.40862 33.90503 213.20233 
287.47303 40.55485 177.68078 37.86890 188.55566 33.90656 214.36176 
287.92377 40.50445 178.17478 37.70695 189.06240 33.77959 215.00304 
288.37448 40.53098 178.20598 37.70667 189.47142 33.83340 215.99670 
288.82515 40.47829 179.07663 37.60545 190.71631 33.83686 217.39166 
289.27578 40.42696 179.38916 37.56709 191.14747 33.71556 218.08482 
289.72638 40.36803 179.64099 37.45234 191.28667 33.57209 218.98480 
290.17695 40.35014 180.53192 37.39226 192.37815 33.70049 220.23208 
290.62748 40.23822 180.42648 37.31561 192.93723 33.51577 220.97884 
291.07798 40.25900 180.53727 37.36882 193.21852 33.34817 221.41028 
291.52844 40.10674 180.79493 37.18558 193.46995 33.36222 222.21118 
291.97887 40.13451 181.51813 37.12637 194.27697 33.40919 223.23005 
292.42927 40.04674 181.39206 36.99923 194.64753 33.26894 223.52988 
292.87963 39.95646 181.86624 36.82672 195.27147 33.16051 224.47608 
293.32996 39.89564 181.93719 36.88804 195.31391 32.95761 225.07620 
293.78025 39.84835 182.58188 36.76423 196.13590 33.08914 226.21086 
294.23051 39.80847 183.07611 36.71388 196.48519 33.11410 226.91928 
294.68074 39.77870 183.24623 36.66146 197.04801 32.94845 227.59780 
295.13093 39.63396 182.95690 36.55241 196.93313 32.88343 227.64038 
295.58109 39.65952 183.56543 36.45811 197.66044 32.77498 228.41021 
296.03121 39.56608 184.13090 36.42801 198.45455 32.76023 229.45895 
296.48130 39.53864 184.40656 36.38080 199.34064 32.95466 230.53222 
296.93136 39.54153 184.21914 36.28905 198.92616 32.81312 230.47001 
297.38139 39.47202 184.32103 36.15151 199.06593 32.67913 230.96385 
297.83138 39.41560 185.06960 36.12454 199.82623 32.73716 231.77639 
298.28133 39.38240 184.88356 36.09074 200.13412 32.64670 232.10312 
298.73126 39.29613 185.30063 36.13558 200.83781 32.63715 232.87862 
299.18115 39.29248 185.69349 36.06410 200.99005 32.54373 233.24506 
299.63100 39.20492 185.63044 36.00721 201.57207 32.65071 234.11824 
300.08083 39.21345 185.78048 35.90620 201.20009 32.59343 234.14003 
300.53062 39.12281 186.15133 35.84154 201.75086 32.63813 234.90749 
300.98037 39.08759 186.03088 35.74872 202.30103 32.59075 235.11672 
301.43010 39.14866 186.53255 35.79440 202.52384 32.61670 235.69395 
301.87979 39.05530 186.81282 35.78937 202.83983 32.54307 236.31420 
302.32944 38.97820 186.84645 35.64991 203.34543 32.47109 236.75062 
302.77907 38.88356 186.87981 35.71004 203.40758 32.48654 237.30007 
303.22866 38.93244 187.16184 35.65754 203.89533 32.42981 237.68024 
303.67822 38.92096 187.55049 35.66576 204.35692 32.56356 238.04000 
304.12774 38.98534 188.28472 35.58022 204.75317 32.47717 238.71782 
304.57723 38.87714 187.91305 35.48845 204.90034 32.58161 238.84390 
305.02669 38.84826 187.96921 35.58379 205.39928 32.48311 239.40844 
305.47612 38.82726 188.39495 35.50547 205.15994 32.51627 239.76629 
305.92551 38.77771 188.38540 35.50873 205.71519 32.59976 240.47261 
306.37487 38.74089 188.76469 35.52283 205.97011 32.67778 240.87447 
306.82420 38.70449 188.97251 35.48032 206.64575 32.52635 241.18530 
307.27350 38.78394 189.20012 35.39144 206.90779 32.80750 241.70167 
307.72276 38.78488 189.43585 35.47249 207.22925 32.80712 242.06646 
308.17199 38.66181 189.55619 35.32892 207.31537 32.73177 242.51899 
308.62119 38.64437 189.87138 35.34194 207.71441 32.78261 242.75498 
309.07036 38.59797 189.72807 35.33674 207.71574 32.67887 242.89397 
309.51949 38.70037 190.05344 35.42144 208.40881 32.86403 243.52785 
309.96859 38.62399 190.16155 35.43269 208.73493 32.81487 243.98883 
310.41766 38.49100 190.36763 35.33117 208.78279 32.89948 244.47392 
310.86670 38.59560 190.92525 35.37825 209.24669 32.71706 244.63311 
311.31570 38.48359 190.53444 35.23854 209.20557 32.94158 244.81909 
311.76467 38.58527 191.26129 35.24079 209.78957 32.90652 245.33637 
312.21361 38.55394 191.38426 35.28677 209.96014 33.02738 245.61135 
312.66252 38.61412 191.35622 35.25394 210.20789 33.01302 246.00842 
313.11140 38.51517 191.55620 35.32053 210.49225 32.97205 246.20722 
313.56024 38.48073 191.93533 35.24903 210.83679 33.00813 246.73088 
314.00905 38.48035 192.27952 35.27861 210.99629 33.10300 246.92772 
314.45783 38.50584 192.24011 35.27170 211.21562 33.19680 247.32255 
314.90658 38.47668 192.57970 35.26410 211.79834 33.15296 247.55449 
315.35530 38.50541 192.39205 35.29419 211.66196 33.25068 247.83210 
315.80398 38.53570 192.67476 35.34205 212.14232 33.36738 248.27954 
316.25263 38.49035 192.58236 35.27824 212.26454 33.44697 248.62012 
316.70125 38.38826 193.07266 35.34156 212.60146 33.39480 248.77314 
317.14984 38.51587 193.41958 35.26629 213.09767 33.46301 249.06449 
317.59840 38.45272 193.34784 35.31869 213.32392 33.42590 249.61523 
318.04692 38.39327 193.58103 35.41015 213.30653 33.54889 249.79235 
318.49542 38.35787 193.94610 35.25688 213.75823 33.64986 249.95761 
318.94388 38.35578 193.70970 35.36572 214.32651 33.67939 250.43042 
319.39231 38.37061 194.54700 35.40929 214.38623 33.54833 250.92013 
319.84071 38.43348 194.31861 35.32232 214.42599 33.70724 250.78358 
320.28908 38.41670 194.26761 35.39191 214.65798 33.84751 251.15090 
320.73742 38.43927 194.73518 35.38604 214.88856 33.80470 251.40395 
321.18572 38.42885 195.03359 35.36967 215.06093 33.83320 251.70684 
321.63400 38.46603 195.27985 35.52240 215.93244 33.93470 252.08579 
322.08224 38.44603 195.17147 35.45142 215.67927 33.95574 252.27299 
322.53045 38.44166 195.38067 35.44551 215.89140 33.91467 252.56708 
322.97863 38.40034 195.56296 35.57526 216.42572 34.17038 252.85141 
323.42678 38.35494 195.89082 35.49095 216.44454 34.12934 253.05405 
323.87490 38.42603 196.22221 35.60929 217.26458 34.28459 253.42697 
324.32299 38.37838 196.14694 35.53403 217.04853 34.19452 253.38989 
324.77104 38.37780 196.35992 35.49000 217.27700 34.31505 253.78634 
325.21907 38.44826 196.77135 35.52691 217.76728 34.45534 254.17538 
325.66706 38.36571 196.57533 35.53487 217.54142 34.55067 254.13966 
326.11503 38.34388 196.77517 35.62715 218.15444 34.64139 254.66747 
326.56296 38.33141 197.27771 35.65319 218.49849 34.67070 254.73190 
327.01086 38.39082 196.73606 35.61345 218.33346 34.60390 254.98337 
327.45873 38.35145 197.21570 35.69939 218.71104 34.78736 255.20582 
327.90657 38.40739 197.43956 35.71329 218.84887 34.82243 255.36073 
328.35438 38.42825 197.62003 35.76501 219.13023 34.81217 255.79665 
328.80216 38.45196 197.81572 35.73444 219.44220 34.93752 255.68724 
329.24991 38.44087 198.00214 35.72770 219.56899 34.95013 256.05120 
329.69763 38.50547 198.11958 35.82811 220.07050 35.09927 256.39689 
330.14532 38.39675 197.90097 35.82597 219.85318 35.05571 256.41068 
330.59297 38.51118 198.50928 35.83987 220.15936 35.12822 256.65080 
331.04060 38.47648 198.79296 35.87942 220.39602 35.22712 256.84341 
331.48819 38.39659 198.71038 35.85920 220.47508 35.29768 256.96776 
331.93576 38.46215 198.70203 35.79778 220.62621 35.28500 257.19362 
332.38330 38.46733 199.06345 35.94257 220.77737 35.43295 257.52246 
332.83080 38.39645 198.78444 35.92054 220.86915 35.40384 257.50159 
333.27827 38.41096 199.01471 36.02824 221.35768 35.48899 257.83263 
333.72572 38.55629 199.16710 35.99433 221.25569 35.58728 257.87668 
334.17313 38.54382 199.42762 36.09040 221.88904 35.61983 258.15142 
334.62052 38.52385 199.81991 36.10513 222.03063 35.73216 258.46841 
335.06787 38.46571 199.66666 36.05708 222.04233 35.77040 258.61896 
335.51519 38.52160 200.28781 36.12576 222.50108 35.88680 258.78371 
335.96249 38.51826 199.59539 36.19609 222.17174 35.96646 258.90599 
336.40975 38.48066 200.24375 36.23159 222.54608 36.01306 259.08034 
336.85699 38.54082 200.34218 36.17503 222.46310 36.04802 259.14755 
337.30419 38.54379 200.35778 36.25677 222.99203 36.05725 259.20674 
337.75136 38.47577 200.61452 36.30087 223.26031 36.12156 259.51738 
338.19851 38.52090 200.57446 36.37631 223.35800 36.31174 259.62492 
338.64562 38.53781 200.99372 36.44399 223.63429 36.37700 259.87064 
339.09271 38.63186 201.03433 36.43183 223.63604 36.37328 260.00494 
339.53976 38.55217 201.31999 36.49260 223.84600 36.36975 260.02000 
339.98679 38.54372 201.50748 36.43624 224.17358 36.55191 260.26801 
340.43378 38.61384 201.43498 36.47728 223.95695 36.61824 260.22090 
340.88075 38.57380 201.49039 36.53678 224.71103 36.70076 260.52957 
341.32768 38.65587 201.56798 36.55470 224.62483 36.80270 260.61193 
341.77459 38.67480 201.81042 36.69539 224.56811 36.84486 260.81648 
342.22147 38.69028 202.19128 36.66297 224.83303 36.92280 260.79948 
342.66831 38.68414 202.13609 36.75077 224.99215 36.90330 261.06070 
343.11513 38.72543 202.19677 36.71219 225.15207 37.06196 261.11688 
343.56192 38.67762 201.93432 36.83062 225.19409 37.05316 261.05204 
344.00868 38.71906 202.48820 36.81943 225.46722 37.21307 261.36951 
344.45541 38.74843 202.63211 36.88687 225.54058 37.25559 261.29705 
344.90211 38.75750 202.53105 36.84621 225.48719 37.30875 261.48662 
345.34878 38.74019 202.60645 36.95392 225.81808 37.38748 261.70920 
345.79542 38.77724 202.87998 37.00221 226.16984 37.36780 261.67372 
346.24204 38.83615 202.99773 37.02458 226.19196 37.57212 261.97185 
346.68862 38.88754 203.32717 37.16162 226.32953 37.64646 261.86903 
347.13517 38.84318 203.04011 37.11958 226.19238 37.69252 261.99873 
347.58170 38.88145 203.33960 37.18488 226.45602 37.84814 262.31488 
348.02820 38.85851 203.53586 37.24053 226.74415 37.87620 262.30945 
348.47466 38.93770 203.66290 37.31348 226.88427 37.96621 262.43073 
348.92110 38.98690 203.92489 37.38392 227.00173 37.98555 262.34362 
349.36751 38.97383 203.79884 37.37214 227.01648 38.16778 262.48272 
349.81389 38.92019 203.62687 37.41887 226.98362 38.20570 262.45776 
350.26024 39.04444 204.22822 37.49210 227.13633 38.35490 262.52957 
350.70656 39.03767 204.20771 37.54759 227.28345 38.33886 262.66225 
351.15286 39.05563 204.49142 37.63141 227.75324 38.43446 262.74393 
351.59912 39.06140 204.44244 37.59510 227.58103 38.53165 262.68589 
352.04536 39.13525 204.33650 37.78661 227.72900 38.65810 262.79096 
352.49157 39.17646 204.75470 37.79754 228.15505 38.72140 262.84075 
352.93775 39.19586 204.70633 37.87623 228.06124 38.86403 262.88563 
353.38390 39.28316 205.16921 37.93101 228.32377 38.91968 262.86879 
353.83002 39.30586 204.86103 37.92804 228.34977 39.08101 263.03467 
354.27611 39.28145 204.98442 38.04070 228.35545 39.10024 263.07415 
354.72218 39.34914 205.67542 38.12945 228.58000 39.23110 263.28426 
355.16821 39.33603 205.23016 38.23142 228.67354 39.41306 263.44231 
355.61422 39.32053 205.13887 38.22399 228.90816 39.43695 263.14832 
356.06020 39.42755 205.87407 38.29299 229.09504 39.44018 263.34084 
356.50615 39.39865 205.91252 38.39876 228.96488 39.56157 263.40281 
356.95207 39.50695 206.10490 38.46911 229.43989 39.69270 263.40004 
357.39796 39.53798 206.17032 38.55269 229.33463 39.75423 263.53773 
357.84383 39.56871 206.05068 38.66275 229.54801 39.93637 263.48674 
358.28967 39.70957 206.55411 38.64593 229.66375 40.12060 263.56136 
358.73548 39.68027 206.37313 38.77987 229.54701 40.13690 263.60796 
359.18126 39.70977 206.77501 38.85350 229.81715 40.18872 263.74190 
359.62701 39.75194 207.02454 38.89313 230.03973 40.32805 263.42082 
360.07273 39.77984 206.78665 39.03529 230.11887 40.48629 263.76434 
360.51843 39.78804 207.23443 39.12390 230.40872 40.59679 263.83675 
360.96410 39.80452 207.31127 39.15523 230.41014 40.66435 263.75704 
361.40974 39.96625 207.33086 39.23035 230.47402 40.78483 263.84325 
361.85535 39.95424 207.60555 39.26626 230.65690 40.88547 263.89512 
362.30093 39.94928 207.40421 39.38657 230.74359 41.04161 263.96438 
362.74649 39.97928 207.80454 39.42143 230.76252 41.11780 263.92701 
363.19202 40.06816 207.65814 39.54545 230.92594 41.20624 264.01925 
363.63752 40.09854 208.15430 39.61293 231.26900 41.33359 264.07917 
364.08299 40.10694 208.38803 39.63923 231.25099 41.46618 264.18179 
364.52843 40.14689 208.17496 39.71900 231.31931 41.51245 264.23781 
364.97385 40.16140 208.29454 39.80248 231.46424 41.67395 264.18777 
365.41924 40.19174 208.60328 39.87086 231.80178 41.77547 264.32178 
365.86460 40.30224 208.83000 39.94120 231.95667 41.94233 264.33114 
366.30994 40.26290 208.82033 39.98846 232.12861 42.02827 264.32363 
366.75524 40.24829 209.00105 40.08065 232.25115 42.12105 264.19047 
367.20052 40.28333 209.39733 40.16266 232.24997 42.25563 264.40353 
367.64577 40.30566 209.38173 40.19823 232.49690 42.31917 264.48647 
368.09099 40.32136 209.78226 40.27149 232.67166 42.43651 264.43922 
368.53619 40.32176 209.79070 40.28823 232.72589 42.50450 264.53945 
368.98136 40.44405 209.95938 40.40960 232.80682 42.77298 264.46563 
369.42650 40.45621 210.11024 40.51562 232.92082 42.79804 264.49969 
369.87161 40.43989 210.13318 40.54421 233.12979 42.94990 264.56666 
370.31670 40.46203 210.48461 40.56759 233.26143 43.00557 264.60857 
370.76175 40.43161 210.50991 40.56065 233.27300 43.12994 264.65293 
371.20678 40.47418 210.74243 40.71665 233.48944 43.28222 264.64065 
371.65179 40.44047 210.77586 40.72925 233.52540 43.35361 264.75428 
372.09676 40.49215 210.90292 40.78802 233.59942 43.43449 264.66321 
372.54171 40.45893 210.86522 40.81823 233.71000 43.53393 264.70410 
372.98663 40.53378 211.44577 40.88597 233.87016 43.57984 264.83769 
373.43153 40.55956 211.28634 40.92864 233.95561 43.71296 264.74268 
373.87640 40.50496 211.55129 40.95458 233.80505 43.88385 264.71263 
374.32124 40.56415 211.51386 41.07553 234.25097 44.07173 264.71155 
374.76605 40.57811 211.77947 41.06527 234.31912 44.14670 264.79520 
375.21083 40.51111 211.42877 41.15733 234.13705 44.25148 264.68552 
375.65559 40.53878 211.72361 41.22085 234.35755 44.34447 264.54544 
376.10032 40.52317 211.76001 41.18504 234.26803 44.46974 264.67806 
376.54503 40.59468 212.19187 41.23719 234.78393 44.59544 264.83217 
376.98971 40.57613 212.26052 41.37835 234.72550 44.70159 264.68929 
377.43436 40.60842 212.11286 41.46941 234.62546 44.81792 264.60181 
377.87898 40.59043 212.46512 41.48213 234.88808 44.94354 264.67872 
378.32358 40.58391 212.45129 41.56320 234.86391 45.11371 264.70275 
378.76815 40.62588 212.67906 41.55830 234.87126 45.14113 264.73482 
379.21269 40.61632 212.65143 41.61754 235.00015 45.29820 264.79824 
379.65721 40.61875 212.82791 41.68517 234.86681 45.41017 264.72731 
380.10170 40.63500 212.80537 41.73111 235.02162 45.54073 264.66445 
380.54616 40.65421 212.90584 41.81192 235.20258 45.66050 264.58308 
380.99060 40.61896 213.03323 41.86207 235.31916 45.76933 264.56094 
381.43501 40.70918 213.10433 41.92352 235.23128 45.94051 264.56885 
381.87939 40.67905 213.16824 41.95222 235.48351 46.02491 264.43287 
382.32375 40.63579 213.19106 41.99177 235.23068 46.17458 264.46947 
382.76808 40.68824 213.37498 42.08724 235.46120 46.29653 264.41374 
383.21238 40.69743 213.25675 42.12920 235.51425 46.40464 264.33906 
383.65665 40.73896 213.44213 42.21865 235.56218 46.58156 264.28709 
384.10090 40.76033 213.31350 42.25844 235.29608 46.69695 264.39016 
384.54513 40.78338 213.59212 42.38454 235.47152 46.82912 264.38254 
384.98932 40.78430 213.54583 42.41150 235.49963 46.80114 264.27319 
385.43350 40.78297 213.60131 42.45186 235.41621 47.05499 264.15282 
385.87764 40.81470 213.60748 42.51078 235.39358 47.14886 264.17104 
386.32176 40.80558 213.64643 42.61288 235.47639 47.24382 264.06074 
386.76585 40.81416 213.63551 42.66550 235.56541 47.47688 263.97077 
387.20991 40.86222 213.95584 42.76218 235.65238 47.51350 264.00192 
387.65395 40.85089 213.81863 42.72055 235.57196 47.64287 263.99708 
388.09796 40.98997 214.06434 42.83162 235.49167 47.89629 263.87410 
388.54195 40.93325 214.09185 42.93185 235.61254 47.97695 263.72214 
388.98591 40.94012 213.89029 42.92843 235.50211 48.00981 263.73118 
389.42984 41.00823 214.11825 43.04142 235.55498 48.12949 263.63968 
389.87375 40.94478 214.02705 43.12580 235.47073 48.34173 263.65947 
390.31763 41.00966 214.22798 43.17052 235.54616 48.53993 263.41445 
390.76149 41.06530 214.16755 43.31247 235.65558 48.66452 263.49896 
391.20532 41.09366 214.20484 43.33087 235.40454 48.83957 263.41263 
391.64912 41.15520 214.40747 43.42359 235.48777 48.99586 263.32870 
392.09290 41.15491 214.26517 43.50662 235.29849 49.04512 263.12950 
392.53665 41.09132 214.35024 43.59628 235.52821 49.28824 263.22884 
392.98037 41.22796 214.30343 43.62796 235.42508 49.43334 263.02295 
393.42407 41.22092 214.15860 43.77549 235.42797 49.49781 262.93529 
393.86775 41.27259 214.52503 43.81191 235.51446 49.65619 263.02630 
394.31139 41.26558 214.46359 43.86258 235.44591 49.83839 262.53003 
394.75501 41.31732 214.29430 43.99715 235.22536 50.03510 262.78945 
395.19861 41.32978 214.49758 44.08209 235.22960 50.10577 262.75338 
395.64218 41.35107 214.50875 44.16271 235.27881 50.34096 262.54728 
396.08572 41.37857 214.67118 44.23615 235.32117 50.48529 262.48608 
396.52924 41.38969 214.58583 44.33596 235.18148 50.69270 262.37695 
396.97273 41.46564 214.66363 44.37730 235.18706 50.77272 262.27447 
397.41620 41.49874 214.81981 44.46065 235.34092 50.85424 262.11303 
397.85964 41.50326 214.55937 44.52684 235.13090 51.15277 262.07463 
398.30306 41.57088 214.71832 44.72629 235.02581 51.18037 261.91704 
398.74645 41.60527 214.58676 44.71699 235.01344 51.41971 261.90521 
399.18981 41.67725 214.88030 44.79105 234.99728 51.61188 261.93312 
399.63315 41.62679 214.65556 44.91931 235.09780 51.70215 261.74384 
400.07646 41.67522 214.80072 44.99850 234.83487 51.84275 261.67261 
400.51975 41.70776 214.63490 45.07369 234.95587 52.04943 261.39365 
400.96301 41.76869 214.76239 45.15577 234.78912 52.16994 261.29265 
401.40625 41.76796 214.54365 45.23490 234.66634 52.46386 261.35095 
401.84946 41.87135 214.72014 45.34526 234.68795 52.56977 261.06515 
402.29264 41.82937 214.50124 45.44455 234.64571 52.74638 261.05160 
402.73580 41.95459 214.94398 45.54540 234.53273 52.94138 260.87861 
403.17894 41.97681 214.76454 45.61204 234.58278 53.11137 260.76183 
403.62205 41.99873 214.65527 45.70696 234.62218 53.18491 260.72088 
404.06513 42.05226 214.74293 45.76050 234.64208 53.35034 260.60711 
404.50819 42.07538 214.87127 45.91797 234.41630 53.54406 260.58357 
404.95122 42.16275 214.82052 46.03656 234.25666 53.79022 260.34789 
405.39423 42.21284 214.70565 46.13410 234.31285 53.92744 260.25157 
405.83721 42.25024 214.78258 46.26528 234.16123 54.15602 260.05150 
406.28017 42.22523 214.81138 46.29099 234.24679 54.20939 259.90949 
406.72310 42.32497 214.51691 46.32480 234.08311 54.50079 259.78402 
407.16601 42.34492 214.96589 46.45253 233.79832 54.63911 259.62734 
407.60889 42.38582 214.51426 46.59766 234.00373 54.90199 259.38146 
408.05174 42.43022 214.79496 46.70943 233.79692 55.09633 259.33291 
408.49458 42.44145 214.77044 46.84222 233.61625 55.19187 259.30165 
408.93738 42.52463 214.86620 46.94839 233.76982 55.38617 259.03965 
409.38016 42.57488 214.74128 47.00657 233.68560 55.59882 258.89631 
409.82292 42.60185 214.61329 47.10742 233.66720 55.78469 258.80549 
410.26565 42.67492 214.83662 47.16011 233.33568 55.92507 258.82640 
410.70836 42.73699 214.71535 47.31219 233.36766 56.16166 258.70130 
411.15104 42.85352 214.74009 47.48685 233.28627 56.42401 258.13710 
411.59369 42.78973 214.68251 47.52664 233.24045 56.51797 258.17781 
412.03632 42.91966 214.56482 47.62138 232.97142 56.80335 257.91176 
412.47893 42.84555 214.59392 47.74465 232.74487 56.92343 257.92113 
412.92151 42.89156 214.59036 47.85303 232.82695 57.14851 257.70501 
413.36407 42.98441 214.65792 47.96065 232.86488 57.31449 257.39979 
413.80660 42.99106 214.85632 48.02257 232.58342 57.54049 257.54214 
414.24911 43.06184 214.59683 48.17353 232.59484 57.66870 257.44640 
414.69159 43.15328 214.55150 48.32547 232.51717 57.92429 257.11195 
415.13404 43.21580 214.47569 48.41315 232.42139 58.13244 256.85670 
415.57648 43.25278 214.34803 48.48723 232.39661 58.28779 256.89079 
416.01888 43.32775 214.33870 48.64920 232.16118 58.50009 256.66027 
416.46127 43.37996 214.45157 48.75365 232.02674 58.74916 256.13892 
416.90362 43.43335 214.52350 48.82645 231.83882 58.91814 256.47287 
417.34596 43.48176 214.46446 48.92807 232.19677 59.03133 256.06246 
417.78827 43.58436 214.29181 49.08752 231.55688 59.30182 255.83013 
418.23055 43.54236 214.34081 49.21383 231.75372 59.59942 255.67404 
418.67281 43.75519 214.46735 49.30376 231.37284 59.64407 255.53718 
419.11505 43.75808 214.22154 49.44652 231.48477 59.92403 255.36666 
419.55726 43.74810 214.23213 49.48424 231.43250 60.09277 255.17141 
419.99944 43.87315 214.13187 49.64767 231.14526 60.35516 254.88356 
420.44160 43.90097 214.21969 49.74487 230.93546 60.58389 254.75022 
420.88374 43.94617 214.19938 49.88962 231.02031 60.72194 254.57010 
421.32585 43.91604 214.24367 50.00459 230.61285 61.05414 254.53107 
421.76794 44.02683 213.95412 50.07570 230.59840 61.21700 254.38846 
422.21000 44.07864 213.94116 50.20039 230.58489 61.42567 253.89141 
422.65204 44.18853 214.15096 50.33991 230.44208 61.66876 253.76702 
423.09405 44.24357 213.88518 50.53871 230.37962 61.87198 253.52661 
423.53604 44.33493 213.96835 50.59021 230.06724 62.11565 253.16242 
423.97801 44.36941 213.97666 50.63484 229.91142 62.31629 253.39506 
424.41995 44.37116 213.81880 50.87411 229.73918 62.46080 253.04661 
424.86187 44.41952 213.66470 50.86297 229.90864 62.70496 252.62844 
425.30376 44.49792 213.66503 51.06019 229.53852 62.92339 252.39409 
425.74563 44.57393 213.88508 51.14961 229.30445 63.15470 252.32662 
426.18747 44.63511 213.67575 51.34561 229.31886 63.41363 252.20313 
426.62929 44.68225 213.66870 51.42934 228.96410 63.55108 251.74123 
427.07109 44.77262 213.83631 51.51790 229.03397 63.79352 251.51938 
427.51286 44.86881 213.38947 51.60266 228.84569 63.97857 251.36256 
427.95460 44.85304 213.45621 51.75286 228.66820 64.25082 251.08368 
428.39633 44.94875 213.40210 52.00402 228.29908 64.54016 250.64498 
428.83803 44.95724 213.54856 52.00751 228.43537 64.72821 250.64297 
429.27970 45.08499 213.37500 52.20709 228.21967 64.88906 250.44355 
429.72135 45.18467 213.42079 52.23091 227.93988 65.06824 250.25150 
430.16298 45.15856 213.42115 52.44039 227.79471 65.37107 249.87351 
430.60458 45.23067 213.12118 52.51947 227.65513 65.58863 249.63642 
431.04616 45.29543 213.13811 52.69944 227.61519 65.82378 249.52623 
431.48771 45.36966 213.05497 52.74611 227.54554 66.06654 248.88910 
431.92924 45.48347 212.89489 52.96304 227.11581 66.40959 248.70606 
432.37075 45.51251 213.08439 53.01217 226.75106 66.44608 248.45713 
432.81223 45.58412 212.78260 53.18445 226.84134 66.73795 247.93689 
433.25369 45.66088 213.00141 53.30856 226.54230 66.98904 247.83421 
433.69512 45.71616 212.76571 53.42158 226.17825 67.22495 247.54234 
434.13653 45.83498 212.67974 53.50282 226.42434 67.34146 247.05265 
434.57792 45.85305 212.79272 53.69592 225.98441 67.67979 247.13731 
435.01928 45.83488 212.54577 53.76813 225.67494 67.82146 246.65688 
435.46062 45.95176 212.51350 53.97276 225.73009 68.13491 246.59393 
435.90193 46.03372 212.33076 54.04713 225.39174 68.37730 246.06405 
436.34322 46.09876 212.37854 54.18182 225.49182 68.53445 245.74070 
436.78449 46.12722 211.99886 54.32145 225.02246 68.84695 245.40873 
437.22573 46.22501 212.16401 54.36128 224.73561 69.07871 244.99982 
437.66695 46.30832 212.05393 54.64420 224.83471 69.33487 245.00377 
438.10814 46.38254 211.91760 54.62263 224.73243 69.51947 244.10437 
438.54932 46.51028 211.92731 54.88471 223.97166 69.78966 244.26324 
438.99046 46.50871 211.83603 54.98167 224.11396 70.06788 243.42164 
439.43159 46.54888 211.84561 55.09251 223.88458 70.30244 243.27221 
439.87269 46.69214 211.67270 55.23022 223.74567 70.25119 242.81518 
440.31376 46.74371 211.58569 55.28594 223.44614 70.59947 242.36754 
440.75482 46.87952 211.66222 55.41824 223.02891 70.91842 242.10388 
441.19585 46.83820 211.43219 55.62324 223.16778 71.05452 241.72981 
441.63685 46.95701 211.51807 55.71041 222.62133 71.28022 241.42345 
442.07783 47.02561 211.47471 55.87242 222.57947 71.63510 240.64658 
442.51879 47.09978 211.17545 55.96702 222.40344 71.92461 240.43544 
442.95973 47.16276 211.32553 56.11506 221.93179 72.05486 239.74096 
443.40064 47.24439 211.06264 56.21229 222.08577 72.23319 239.52644 
443.84152 47.27311 210.90586 56.38811 221.39078 72.46735 238.75721 
444.28239 47.32235 210.98161 56.49723 221.66926 72.76768 238.71076 
444.72323 47.34710 210.91454 56.62647 221.04865 72.98749 238.19641 
445.16404 47.44739 210.79035 56.75384 220.85936 73.17106 237.45316 
445.60484 47.58590 210.60703 56.87264 220.37437 73.42853 237.09151 
446.04561 47.61656 210.38003 56.99114 220.51758 73.69081 236.46714 
446.48635 47.70931 210.54089 57.09025 219.88469 73.79863 236.05970 
446.92708 47.72515 210.26720 57.20456 220.05439 74.11284 235.23571 
447.36777 47.80991 210.42948 57.37509 219.43479 74.38616 234.78614 
447.80845 47.86523 210.07370 57.46062 219.40459 74.55067 234.61219 
448.24910 48.02846 210.26049 57.70044 218.98907 74.72721 233.44434 
448.68973 48.05615 210.11493 57.80507 218.76828 75.03210 232.87807 
449.13034 48.13957 209.83616 58.00414 218.66140 75.24519 231.90613 
449.57092 48.27418 209.76644 57.96840 218.13074 75.44442 231.80090 
450.01148 48.26903 209.67792 58.13795 218.03280 75.67491 231.26460 
450.45201 48.39455 209.76451 58.30499 217.93419 75.81651 230.58224 
450.89253 48.46302 209.34438 58.38006 217.50357 76.05864 229.85705 
451.33301 48.49252 209.24967 58.63139 216.99917 76.28309 229.25498 
451.77348 48.63900 208.96151 58.62482 217.19710 76.47026 228.15007 
452.21392 48.64904 209.07278 58.70625 216.51064 76.70907 228.04205 
452.65434 48.75323 208.96355 58.91057 216.25569 76.86405 227.02845 
453.09474 48.76501 208.81884 59.05405 216.03483 77.17961 225.62291 
453.53511 48.90987 208.65672 59.07535 215.53787 77.35050 225.70855 
453.97546 48.88176 208.72059 59.26866 215.46793 77.46534 224.78337 
454.41578 49.02988 208.61073 59.38766 214.77614 77.77695 223.23298 
454.85609 49.06507 208.49620 59.61088 214.81401 77.96589 223.14886 
455.29637 49.11815 208.21044 59.62196 214.64250 78.14707 221.72731 
455.73662 49.13236 208.23882 59.83793 213.93457 78.37902 221.31846 
456.17686 49.24162 208.11759 59.80615 214.04592 78.52569 219.82810 
456.61707 49.37865 207.86716 59.98765 213.51158 78.69141 218.57160 
457.05725 49.40757 207.85036 60.05038 213.49802 78.89176 217.82090 
457.49742 49.41819 207.76537 60.27333 213.18620 79.08807 216.45269 
457.93756 49.61637 207.68371 60.30521 212.67262 79.22184 216.47897 
458.37767 49.71224 207.21890 60.49438 212.23367 79.29807 214.60677 
458.81777 49.68728 207.20507 60.62549 211.81185 79.55693 214.07305 
459.25784 49.74702 207.03440 60.73026 211.53010 79.75146 211.78793 
459.69789 49.73383 206.96834 60.81062 211.35562 80.01613 210.85531 
460.13791 49.92594 206.95462 60.87775 211.05840 80.04938 210.49567 
460.57792 50.00521 206.83237 61.01246 210.72339 80.12836 208.45719 
461.01789 50.13029 206.71948 61.11083 210.26324 80.40841 206.99848 
461.45785 50.12359 206.65092 61.25344 210.06873 80.56664 206.54180 
461.89778 50.23457 206.24470 61.36339 209.63045 80.62163 204.14954 
462.33769 50.33940 206.10716 61.46107 209.23178 80.69321 203.21186 
462.77758 50.37941 206.03331 61.53499 209.35705 80.87722 201.55961 
463.21744 50.39592 205.87358 61.63046 208.55348 81.03752 199.56752 
463.65729 50.44165 205.78561 61.80745 208.20003 81.15992 198.78721 
464.09710 50.56958 205.58058 61.79683 207.53924 81.28414 196.29392 
464.53690 50.66243 205.43941 62.08817 207.62672 81.28793 195.14333 
464.97667 50.77736 205.28813 62.07227 206.88894 81.40718 193.10764 
465.41642 50.79309 205.30860 62.16824 206.63720 81.52544 191.85610 
465.85615 50.82898 205.02632 62.35783 206.46615 81.62495 189.94742 
466.29585 50.99721 204.81933 62.48528 205.70572 81.69533 188.39160 
466.73553 51.05819 204.58421 62.51538 205.55534 81.76462 186.17137 
467.17519 51.03539 204.34201 62.60786 205.25334 81.82670 184.67376 
467.61482 51.19769 204.41030 62.73207 204.69233 81.82759 182.83608 
468.05444 51.13983 204.30096 62.85766 204.45314 81.93652 181.66725 
468.49403 51.24807 204.05431 62.86028 203.92517 81.91271 178.97211 
468.93359 51.35628 203.95792 63.00062 203.48385 81.94508 177.44410 
469.37314 51.40217 203.72735 63.17108 202.95633 82.09734 175.72581 
469.81266 51.47997 203.29267 63.21899 202.47573 82.09911 173.64572 
470.25215 51.52654 203.49815 63.27808 202.40035 82.13854 172.26359 
470.69163 51.52006 203.27511 63.39325 202.18533 82.01034 169.87561 
471.13108 51.68162 203.13786 63.51858 201.40006 81.94892 168.16404 
471.57051 51.68408 202.83721 63.58621 200.73164 82.02698 166.48715 
472.00992 51.82673 202.70193 63.63937 200.61550 82.02397 164.55546 
472.44930 51.88476 202.52965 63.70781 200.13435 81.98737 163.27211 
472.88867 51.94981 202.42972 63.81037 199.63430 81.95750 161.70469 
473.32800 52.00223 202.17240 63.91356 199.06366 81.88881 159.05747 
473.76732 52.14443 202.17966 63.93164 198.88056 81.76097 157.51662 
474.20661 52.17006 201.88454 64.09144 198.40831 81.70730 155.53550 
474.64588 52.26219 201.77510 64.16690 198.11366 81.76066 154.19201 
475.08513 52.28100 201.56972 64.22483 197.56290 81.65089 152.57478 
475.52436 52.32805 201.62689 64.25074 197.10727 81.56574 150.10783 
475.96356 52.40709 201.04733 64.26181 196.50159 81.39081 149.15503 
476.40274 52.48868 201.17024 64.46709 196.14808 81.36049 147.21027 
476.84190 52.54736 200.88293 64.55667 195.85103 81.21030 145.81397 
477.28103 52.71518 200.52339 64.64414 195.00641 81.13914 144.81573 
477.72014 52.69035 200.59552 64.66906 194.72395 81.04874 143.25527 
478.15923 52.75662 200.16904 64.73030 194.07658 80.96438 140.91821 
478.59830 52.79204 199.95081 64.77361 193.82895 80.79685 139.59253 
479.03735 52.82430 200.06587 64.93674 193.45529 80.71223 138.95138 
479.47637 53.00416 199.59966 64.90866 192.94717 80.70338 137.80134 
479.91537 53.00927 199.60250 64.88257 192.06946 80.47802 136.19660 
480.35434 53.03015 199.37936 64.97816 191.98441 80.28073 135.06936 
480.79330 53.07534 199.22834 65.09959 191.57638 80.08011 133.52716 
481.23223 53.15924 199.02805 65.14011 191.23830 80.07125 132.55131 
481.67114 53.28854 199.08096 65.18184 190.84508 79.88262 131.52311 
482.11002 53.25254 198.53853 65.34845 190.16214 79.69551 130.45523 
482.54889 53.36966 198.48672 65.30607 189.57460 79.57776 129.04983 
482.98773 53.47749 198.02479 65.38644 189.17461 79.31742 128.34175 
483.42655 53.40798 197.97816 65.44596 189.06720 79.26560 127.54941 
483.86534 53.46387 197.65015 65.48306 187.86308 79.08974 126.13480 
484.30412 53.58944 197.53227 65.50802 187.73940 78.98610 125.57508 
484.74287 53.62870 197.23576 65.52496 186.77024 78.76377 124.91614 
485.18160 53.64413 197.20748 65.62773 186.34436 78.56689 124.01618 
485.62030 53.74879 196.75050 65.66143 186.12048 78.49508 122.85644 
486.05899 53.79300 196.76292 65.70727 185.84829 78.39242 121.99831 
486.49765 53.90042 196.50627 65.65379 184.95018 78.21101 121.32881 
486.93629 53.92977 196.50095 65.77939 184.89343 78.01799 120.65153 
487.37490 54.01293 196.21576 65.84357 184.48735 77.88973 120.03473 
487.81350 53.93326 195.93844 65.82443 183.87577 77.57124 119.14527 
488.25207 53.98227 195.92420 65.93067 183.29426 77.44525 118.55227 
488.69062 54.08811 195.46596 65.91775 182.75052 77.27747 117.50787 
489.12914 54.20566 195.32957 65.95010 182.36389 77.18912 116.78150 
489.56765 54.24610 195.16096 66.00680 181.73006 77.02077 116.46494 
490.00613 54.22295 194.82449 66.02333 181.48475 76.70066 115.48028 
490.44459 54.38209 194.57932 65.98997 180.75838 76.55650 115.25084 
490.88303 54.37848 194.56865 66.09234 180.31990 76.39431 114.20847 
491.32144 54.41930 194.15223 66.09315 179.86823 76.28465 114.18103 
491.75983 54.50200 193.92566 66.14576 179.46339 76.10446 113.46712 
492.19820 54.41427 193.86407 66.12788 178.66639 75.96664 112.89148 
492.63655 54.54476 193.62311 66.19741 178.44512 75.68280 111.99811 
493.07488 54.61736 193.51372 66.17976 177.58159 75.62448 111.70700 
493.51318 54.68336 192.95947 66.17900 177.24064 75.34441 111.22188 
493.95146 54.72571 192.94404 66.21910 176.78605 75.24216 110.77257 
494.38972 54.84287 192.72721 66.23545 176.09555 75.03735 110.13698 
494.82795 54.79704 192.51168 66.17240 175.63304 74.85723 109.51270 
495.26617 54.86822 192.12714 66.20814 175.20478 74.65445 109.00688 
495.70436 54.94932 192.13613 66.15424 174.65857 74.47887 108.66456 
496.14253 54.86177 191.92113 66.17275 173.99931 74.24864 108.43990 
496.58067 54.92216 191.55835 66.21119 173.79135 74.21194 107.95109 
497.01880 54.87190 191.38752 66.15261 173.44450 73.99691 107.46425 
497.45690 55.07489 191.14167 66.14433 172.48174 73.84014 106.69648 
497.89498 55.17148 190.75266 66.16252 172.22308 73.62796 106.53748 
498.33304 55.19350 190.66575 66.28513 171.82604 73.47652 105.83871 
498.77107 55.15519 190.38864 66.13676 171.22873 73.23867 105.92943 
499.20908 55.22036 190.25157 66.05735 170.89379 73.20621 105.31818 
499.64707 55.27032 189.83226 66.15270 170.55325 72.97301 104.90530 
500.08504 55.36923 189.64176 66.13426 169.90293 72.82074 104.53392 
500.52299 55.39468 189.74083 66.17702 169.41639 72.55977 104.32828 
500.96091 55.36599 189.27395 66.08165 169.28999 72.40698 104.01022 
501.39881 55.49023 188.90565 66.05796 168.52223 72.31860 103.51862 
501.83669 55.43666 188.72193 66.04078 167.91075 72.03784 103.02894 
502.27455 55.46513 188.68153 65.94171 167.51512 71.99987 102.73275 
502.71238 55.47458 188.37727 65.94021 166.80467 71.81914 102.50645 
503.15019 55.51457 188.07646 66.05359 166.51468 71.58580 102.35213 
503.58798 55.60671 187.99016 66.00118 166.13581 71.41358 101.90029 
504.02575 55.53648 187.51577 65.99814 165.72463 71.29638 101.71136 
504.46350 55.66681 187.45049 65.92965 165.26339 71.05127 101.42914 
504.90122 55.62989 187.04233 65.88773 164.65395 70.86297 101.05370 
505.33892 55.69129 186.98109 65.90952 164.21082 70.74563 100.65164 
505.77660 55.70175 186.63446 65.79441 163.71667 70.61512 100.31786 
506.21426 55.74457 186.49557 65.76514 163.16773 70.40730 100.28044 
506.65189 55.81087 186.43034 65.80024 162.77247 70.27195 99.87682 
507.08950 55.83190 185.92150 65.77045 162.15310 70.01730 99.92634 
507.52709 55.81281 185.68960 65.70438 161.72664 69.86599 99.71896 
507.96466 55.78492 185.44333 65.64911 161.49316 69.74031 99.12641 
508.40220 55.89039 185.24587 65.64576 160.94103 69.52724 98.85733 
508.83973 55.91705 184.83337 65.55726 160.30681 69.33272 98.61475 
509.27723 55.94011 184.91696 65.53130 159.90922 69.25361 98.30493 
509.71471 55.90456 184.49963 65.55745 159.78775 69.14210 98.30527 
510.15216 55.94697 184.38715 65.46238 159.03131 68.87800 98.16514 
510.58960 56.01839 184.18252 65.33654 158.49406 68.65593 97.72354 
511.02701 56.08503 183.83416 65.32275 158.06717 68.58975 97.42261 
511.46440 55.99392 183.54297 65.31871 157.70377 68.50482 97.28511 
511.90177 56.03680 183.30545 65.25629 157.49173 68.33756 97.03459 
512.33911 56.11814 183.24836 65.17015 156.95118 68.12440 96.97633 
512.77644 56.11691 182.68695 65.16915 156.58359 67.99056 96.67538 
513.21374 55.98163 182.53231 65.15315 156.15942 67.82269 96.39711 
513.65102 56.19151 182.38084 65.04657 155.69746 67.66550 96.30862 
514.08827 56.15268 182.05583 64.97294 155.14642 67.44597 96.20356 
514.52551 56.19034 182.14809 65.00593 155.05740 67.39662 95.91932 
514.96272 56.18288 181.75046 64.87720 154.47128 67.15763 95.70176 
515.39991 56.19253 181.37117 64.84266 154.24850 67.03525 95.38386 
515.83708 56.20125 181.22661 64.82202 153.73152 66.79208 95.29675 
516.27422 56.22506 180.83836 64.75255 153.11125 66.69086 95.20617 
516.71135 56.17618 180.73639 64.63273 153.05043 66.53431 95.02517 
517.14845 56.26116 180.29197 64.62548 152.48821 66.40685 94.68362 
517.58553 56.24624 180.31297 64.49481 152.06363 66.28450 94.55973 
518.02258 56.26708 179.99080 64.46670 151.55333 66.14204 94.61421 
518.45962 56.16373 179.74021 64.44542 151.34351 65.92915 94.32914 
518.89663 56.30360 179.44973 64.36419 150.87711 65.78591 93.97410 
519.33362 56.28853 179.27965 64.30869 150.52684 65.55966 93.80245 
519.77059 56.28146 178.95189 64.22383 150.20114 65.49835 93.90542 
520.20754 56.27343 178.87543 64.10384 149.83359 65.36015 93.51738 
520.64446 56.31047 178.38960 64.04544 149.64899 65.22234 93.55509 
521.08136 56.34365 178.20476 63.93657 149.03551 65.00620 93.21598 
521.51824 56.25170 177.79988 63.94560 148.76712 64.87479 93.02976 
521.95510 56.37876 177.72092 63.85468 148.35512 64.76219 93.11296 
522.39193 56.26591 177.53038 63.77258 148.13508 64.64408 92.93710 
522.82875 56.30343 176.98733 63.73750 147.75216 64.50931 92.68197 
523.26554 56.37288 176.97264 63.65991 147.11173 64.34876 92.72738 
523.70231 56.32254 176.73023 63.59353 147.00060 64.15101 92.29230 
524.13905 56.28160 176.33547 63.45640 146.70153 64.01910 92.13698 
524.57578 56.33655 176.25070 63.39095 146.20040 63.85865 91.97522 
525.01248 56.28401 175.89915 63.39236 146.03931 63.77041 91.99325 
525.44916 56.23051 175.78905 63.33767 145.58614 63.64786 91.86896 
525.88582 56.24311 175.73887 63.19730 145.41740 63.55664 91.72726 
526.32245 56.27750 175.16689 63.16781 145.07319 63.34091 91.55111 
526.75907 56.28075 175.12673 63.01397 144.72108 63.20980 91.27392 
527.19566 56.18798 174.87647 62.99184 144.54078 63.10499 91.29215 
527.63223 56.23373 174.61560 62.96603 144.07703 62.90280 91.13182 
528.06877 56.27139 174.36294 62.86091 143.81830 62.81540 90.86448 
528.50530 56.28211 174.03392 62.75529 143.46432 62.62111 90.91019 
528.94180 56.19028 173.85277 62.64155 143.11868 62.53445 90.81057 
529.37828 56.24199 173.82780 62.62199 142.86126 62.31858 90.58729 
529.81474 56.20013 173.45199 62.51705 142.57519 62.29939 90.41380 
530.25118 56.18461 173.31710 62.40113 142.06263 62.11754 90.37690 
530.68759 56.23148 173.12317 62.31774 141.85209 61.98563 90.19394 
531.12398 56.25705 172.97198 62.31438 141.58169 61.87264 90.19817 
531.56035 56.16171 172.57522 62.29665 141.28895 61.74145 89.98149 
531.99670 56.24403 172.27943 62.17545 141.18919 61.59017 89.92016 
532.43302 56.11084 172.15462 61.99931 140.85430 61.40654 89.75567 
532.86933 56.15535 171.79090 61.95421 140.31222 61.41780 89.69912 
533.30561 56.15312 171.44628 61.84999 140.01738 61.18677 89.46831 
533.74187 56.03119 171.43347 61.80937 139.88309 61.09482 89.31446 
534.17810 56.11635 171.15874 61.67433 139.65567 60.97315 89.33672 
534.61432 56.14874 170.99392 61.63269 139.39246 60.78842 89.29348 
535.05051 56.02686 170.95540 61.53746 138.97257 60.71592 89.11258 
535.48668 56.01989 170.53873 61.46690 138.67102 60.57187 89.15219 
535.92282 56.14370 170.32779 61.36630 138.60652 60.46419 89.01326 
536.35895 55.96162 170.08332 61.31284 138.02246 60.40161 88.84883 
536.79505 56.05320 169.75843 61.21523 138.13639 60.21970 88.78873 
537.23113 55.96795 169.76663 61.08067 137.87312 60.06601 88.56758 
537.66719 55.93982 169.50686 61.03200 137.54139 59.97860 88.53436 
538.10323 55.98670 169.13348 60.93040 137.21948 59.87680 88.37843 
538.53924 55.89492 168.84728 60.84277 137.09969 59.74030 88.42312 
538.97523 55.93407 168.73578 60.76256 136.66575 59.59515 88.30068 
539.41120 55.86515 168.68928 60.69994 136.42998 59.49871 88.05569 
539.84715 55.94585 168.17679 60.67385 136.20847 59.33352 87.94958 
540.28307 55.91118 168.05034 60.51155 135.98812 59.26853 87.93740 
540.71898 55.80523 167.94844 60.45238 135.81820 59.11908 87.89558 
541.15486 55.86184 167.67611 60.27740 135.48548 59.02953 87.99138 
541.59072 55.82110 167.44672 60.22629 135.37187 58.92236 87.69415 
542.02655 55.79344 167.29708 60.15896 134.92058 58.82203 87.50295 
542.46237 55.73163 166.85712 60.04547 134.80821 58.69225 87.53469 
542.89816 55.69251 166.73994 59.97255 134.46613 58.52261 87.38988 
543.33393 55.66851 166.72177 60.01884 134.24036 58.46602 87.35633 
543.76967 55.61515 166.26107 59.78333 134.17050 58.36334 87.28831 
544.20540 55.62280 166.12330 59.72677 134.18901 58.24276 87.16999 
544.64110 55.58339 165.96265 59.64012 133.84853 58.15688 87.10640 
545.07678 55.56842 165.79670 59.55081 133.58118 58.00775 87.02816 
545.51244 55.46578 165.57281 59.43157 133.31162 57.85618 86.96052 
545.94807 55.49401 165.36671 59.37917 133.00831 57.82839 86.84644 
546.38369 55.49130 165.09494 59.34829 132.95657 57.73914 86.61671 
546.81928 55.45920 164.97032 59.17656 132.69093 57.58219 86.63854 
547.25484 55.44179 164.82064 59.10187 132.37209 57.46021 86.59054 
547.69039 55.44471 164.57388 58.97989 132.15936 57.37393 86.56713 
548.12591 55.34426 164.37022 58.94035 132.08696 57.32083 86.30988 
548.56142 55.32020 164.25333 58.83449 131.79879 57.13846 86.32929 
548.99689 55.29155 163.95474 58.80606 131.65532 57.02379 86.23213 
549.43235 55.26549 163.73100 58.66649 131.29234 56.93594 86.20228 
549.86779 55.28023 163.58591 58.64117 131.17989 56.83150 86.05951 
550.30320 55.16213 163.26799 58.47852 131.04208 56.66259 86.18569 
550.73859 55.19395 163.11398 58.47901 130.79428 56.65888 85.91740 
551.17395 55.10831 163.00280 58.30700 130.66805 56.51735 86.01029 
551.60930 55.10349 162.72037 58.20313 130.65060 56.37090 85.91296 
552.04462 55.13638 162.47735 58.16121 130.22509 56.28938 85.59843 
552.47992 55.04839 162.52826 58.06967 130.10627 56.16608 85.69659 
552.91520 55.02170 162.10522 57.97697 129.84145 56.04189 85.63892 
553.35045 54.97197 162.14364 57.93387 129.81928 55.99746 85.44368 
553.78569 54.97487 161.74697 57.86966 129.69638 55.82683 85.47090 
554.22090 54.97709 161.58605 57.76345 129.39180 55.77284 85.49849 
554.65608 54.83610 161.56287 57.61939 129.09692 55.70306 85.36651 
555.09125 54.88338 161.26684 57.62603 129.00362 55.57093 85.36874 
555.52639 54.81370 161.13699 57.45784 128.80577 55.48349 85.27437 
555.96151 54.81382 160.84929 57.41083 128.63887 55.39751 85.18280 
556.39661 54.76148 160.96617 57.31224 128.57582 55.28086 85.08613 
556.83169 54.68993 160.38089 57.25356 128.34863 55.17031 84.98202 
557.26674 54.70681 160.39857 57.13616 128.13739 55.10027 84.95744 
557.70177 54.57370 160.27015 57.00135 127.94771 55.00890 84.83788 
558.13678 54.59286 160.18439 56.93027 127.80378 54.87855 84.87922 
558.57177 54.59213 159.88634 56.88885 127.64031 54.76740 84.76532 
559.00673 54.48269 159.62345 56.73543 127.50566 54.71073 84.73042 
559.44167 54.49922 159.62272 56.71574 127.40312 54.62356 84.75185 
559.87659 54.43856 159.59699 56.62685 127.33108 54.51224 84.50129 
560.31148 54.36251 159.18181 56.53816 127.20021 54.43206 84.48927 
560.74636 54.29384 159.00537 56.44700 126.93320 54.28873 84.44439 
561.18121 54.25171 158.77531 56.38097 126.76510 54.25574 84.31544 
561.61604 54.25953 158.71279 56.28928 126.60705 54.19687 84.26177 
562.05084 54.17780 158.47223 56.20821 126.46640 54.01822 84.20770 
562.48562 54.21243 158.36468 56.10473 126.48330 53.88931 84.18678 
562.92039 54.14737 158.28351 55.98363 126.28123 53.88605 84.19813 
563.35512 54.08752 158.12065 55.96536 125.99514 53.78090 84.01766 
563.78984 54.01282 157.89583 55.82174 126.00983 53.65771 84.04546 
564.22453 54.01800 157.79584 55.74633 125.83775 53.58945 83.97704 
564.65920 53.97502 157.48436 55.72548 125.66090 53.51999 84.04465 
565.09385 53.95276 157.38409 55.55962 125.50774 53.43082 83.82997 
565.52847 53.93020 157.25675 55.53550 125.45008 53.35136 83.79406 
565.96308 53.76538 157.03455 55.43737 125.29313 53.22968 83.76825 
566.39766 53.84079 156.86346 55.31300 125.11928 53.17944 83.83581 
566.83221 53.78753 156.69154 55.24856 125.07522 53.09592 83.55742 
567.26675 53.70637 156.51623 55.13220 125.01827 52.99994 83.59735 
567.70126 53.71782 156.49169 55.10125 124.74402 52.92017 83.66111 
568.13575 53.58928 156.34891 55.01869 124.59143 52.78248 83.50172 
568.57021 53.58431 156.10465 54.92221 124.49640 52.72430 83.48834 
569.00466 53.57914 156.06737 54.83692 124.38666 52.66458 83.45111 
569.43908 53.53426 155.90653 54.76190 124.23942 52.57691 83.46072 
569.87348 53.40232 155.67512 54.70214 124.10834 52.50518 83.36148 
570.30785 53.35827 155.59233 54.65381 124.05407 52.42367 83.28551 
570.74220 53.33736 155.52664 54.54513 123.79214 52.35382 83.23463 
571.17653 53.33469 155.36655 54.45362 123.57859 52.28832 83.13445 
571.61084 53.32433 155.26348 54.34385 123.62409 52.16231 83.20526 
572.04513 53.29063 154.98079 54.28989 123.59786 52.06152 83.22945 
572.47939 53.16258 154.83728 54.24760 123.40234 51.97310 83.05051 
572.91363 53.11363 154.66653 54.12148 123.28618 51.92923 82.92745 
573.34784 53.13810 154.59065 54.05848 123.14381 51.85570 82.90970 
573.78204 53.14281 154.36461 53.95871 122.89194 51.75172 82.82938 
574.21621 52.99669 154.21347 53.92312 122.92310 51.73244 82.88479 
574.65035 52.92515 154.14929 53.80382 122.74397 51.62150 82.85113 
575.08448 52.85269 153.97396 53.76786 122.77065 51.48492 82.73683 
575.51858 52.85897 153.85937 53.66858 122.62908 51.41665 82.72271 
575.95266 52.86015 153.70170 53.58101 122.45317 51.32818 82.64852 
576.38672 52.76559 153.59850 53.48483 122.33821 51.28036 82.63984 
576.82075 52.75440 153.50693 53.40716 122.24893 51.20152 82.62778 
577.25476 52.68662 153.27938 53.33672 122.08880 51.15144 82.55915 
577.68875 52.59409 153.14662 53.28131 122.08912 51.01362 82.50051 
578.12271 52.59756 152.94209 53.24633 121.96241 51.00439 82.46266 
578.55666 52.56172 152.91359 53.10643 121.92943 50.87222 82.46702 
578.99057 52.50367 152.74907 53.02260 121.80335 50.83374 82.42445 
579.42447 52.47530 152.57720 52.96047 121.64916 50.67474 82.38001 
579.85834 52.44890 152.56667 52.92510 121.48003 50.69634 82.31073 
580.29219 52.35145 152.29275 52.77665 121.44852 50.57743 82.34651 
580.72602 52.30188 152.30373 52.71411 121.28001 50.51983 82.22742 
581.15982 52.24615 152.14135 52.69517 121.24272 50.44929 82.24189 
581.59360 52.22468 152.19819 52.62145 121.14251 50.29664 82.16969 
582.02736 52.19166 151.83381 52.46993 121.02166 50.26158 82.15017 
582.46110 52.10931 151.84028 52.43212 120.99755 50.24376 82.04392 
582.89481 52.06855 151.52913 52.39895 120.87725 50.09500 81.96519 
583.32850 52.03474 151.59594 52.33729 120.86172 50.02852 82.05239 
583.76216 51.96153 151.41798 52.19926 120.67175 50.00909 82.03902 
584.19581 51.90731 151.37897 52.12817 120.59603 49.89048 81.94380 
584.62943 51.79335 151.12323 52.03877 120.48266 49.87069 81.97537 
585.06302 51.88468 151.08338 52.05187 120.48379 49.78235 81.83947 
585.49660 51.85189 150.90964 51.86854 120.27599 49.70016 81.75291 
585.93015 51.68906 150.77290 51.82647 120.24447 49.56420 81.74875 
586.36367 51.71909 150.75813 51.77154 120.20071 49.53930 81.77936 
586.79718 51.58208 150.65538 51.74779 120.09466 49.46494 81.74310 
587.23066 51.61008 150.42946 51.56627 120.10542 49.41033 81.74212 
587.66411 51.56871 150.41940 51.52822 119.84181 49.31816 81.65133 
588.09755 51.47607 150.10835 51.44685 119.92847 49.31802 81.57638 
588.53096 51.43536 150.34978 51.37453 119.75091 49.28059 81.56098 
588.96435 51.42076 150.09312 51.34424 119.62072 49.11127 81.55144 
589.39771 51.37074 150.04517 51.25069 119.57715 49.02490 81.55701 
589.83105 51.32200 149.82496 51.17327 119.50583 48.96388 81.43086 
590.26437 51.21322 149.77733 51.13987 119.42603 48.94759 81.45286 
590.69767 51.25780 149.77265 51.05205 119.33232 48.88241 81.39029 
591.13094 51.09741 149.62622 50.94248 119.23026 48.80566 81.32740 
591.56419 51.12666 149.45455 50.94303 119.28451 48.75618 81.31016 
591.99741 51.06546 149.31708 50.86586 119.01821 48.63012 81.27826 
592.43061 50.99599 149.20719 50.74997 118.98686 48.64858 81.11918 
592.86379 50.96518 149.11113 50.71082 118.98844 48.50290 81.28026 
593.29695 50.94835 148.99513 50.62638 119.00918 48.49474 81.21886 
593.73008 50.86254 148.87467 50.57220 118.77618 48.43325 81.20504 
594.16318 50.78474 148.82895 50.47099 118.71577 48.35075 81.17382 
594.59627 50.79439 148.70325 50.42794 118.80337 48.26913 81.18339 
595.02933 50.71095 148.60024 50.32051 118.51823 48.23746 81.01755 
595.46237 50.64353 148.51923 50.29507 118.46561 48.12503 81.11180 
595.89538 50.65000 148.56716 50.20100 118.50560 48.08464 80.99887 
596.32837 50.57431 148.37008 50.13481 118.36040 48.03134 81.01372 
596.76134 50.51105 148.21336 50.07689 118.34437 47.92520 80.89433 
597.19428 50.51563 148.16687 49.97774 118.22661 47.92429 80.98885 
597.62720 50.41555 147.99639 50.01230 118.23959 47.82670 80.86953 
598.06010 50.41171 148.00898 49.88183 118.04955 47.76933 80.83017 
598.49297 50.33198 147.86152 49.77004 118.06604 47.71445 80.88124 
598.92582 50.31125 147.91763 49.74421 118.02705 47.65650 80.83655 
599.35865 50.28633 147.64178 49.65484 118.00582 47.59626 80.68754 
599.79145 50.18192 147.52141 49.57051 117.80348 47.52761 80.81935 
600.22423 50.14057 147.50677 49.54794 117.81144 47.48834 80.73123 
600.65699 50.06848 147.50004 49.49701 117.71084 47.42606 80.64319 
601.08972 50.03903 147.38716 49.38534 117.66453 47.36228 80.74571 
601.52243 49.95498 147.36379 49.30211 117.69085 47.24935 80.63981 
601.95511 49.98916 147.19361 49.26158 117.55597 47.19541 80.64839 
602.38777 49.91298 147.16588 49.17239 117.40130 47.14961 80.60080 
602.82041 49.82099 147.07886 49.13862 117.37583 47.12684 80.52697 
603.25302 49.83047 146.89948 49.04537 117.40839 47.02979 80.51664 
603.68561 49.74735 146.99285 49.01513 117.44083 46.91192 80.50129 
604.11818 49.76971 146.76715 48.94113 117.23401 46.93234 80.50865 
604.55072 49.65316 146.82217 48.84335 117.20842 46.87796 80.49531 
604.98324 49.66124 146.63504 48.78386 117.15681 46.75233 80.45707 
605.41573 49.62679 146.58704 48.81422 117.10343 46.74076 80.34032 
605.84820 49.50550 146.57812 48.69688 116.96302 46.62710 80.39598 
606.28065 49.46189 146.30339 48.61966 116.92396 46.66982 80.29757 
606.71307 49.39337 146.10440 48.60838 116.92122 46.51999 80.42377 
607.14547 49.42303 146.21429 48.49027 116.85701 46.49685 80.30887 
607.57784 49.36837 146.17502 48.48219 116.76997 46.50160 80.41316 
608.01019 49.30849 146.11799 48.36577 116.93244 46.42902 80.31013 
608.44252 49.22114 145.95774 48.27508 116.60980 46.38682 80.34350 
608.87482 49.14657 145.86074 48.24014 116.71475 46.32649 80.24944 
609.30710 49.08406 145.79413 48.22441 116.69253 46.21748 80.17525 
609.73936 49.06734 145.86696 48.11829 116.59075 46.17883 80.23400 
610.17159 49.06169 145.65595 48.04749 116.43876 46.11899 80.11880 
610.60380 49.01840 145.56903 47.96866 116.46043 46.06081 80.15151 
611.03598 48.92918 145.61993 47.89950 116.42043 45.97265 80.03061 
611.46814 48.95733 145.43707 47.88086 116.33774 45.92102 80.15654 
611.90027 48.87205 145.42145 47.78624 116.33297 45.89373 80.13029 
612.33238 48.83533 145.29018 47.72436 116.19634 45.86456 80.03938 
612.76447 48.74554 145.20915 47.73389 116.21236 45.76174 80.00882 
613.19653 48.79014 145.17482 47.67000 116.22547 45.69856 79.99094 
613.62857 48.65928 145.23528 47.56120 116.07865 45.73750 80.03919 
614.06058 48.65900 145.04601 47.50370 116.00847 45.67589 79.99316 
614.49257 48.57779 144.81202 47.46515 116.00305 45.60139 80.03281 
614.92454 48.55738 144.94243 47.40906 115.93953 45.49148 79.94157 
615.35648 48.50488 144.84657 47.37956 115.92893 45.48526 79.94198 
615.78840 48.41149 144.83013 47.26872 115.93793 45.34361 79.87621 
616.22029 48.41031 144.65507 47.23989 115.89785 45.37257 79.84129 
616.65216 48.38832 144.67281 47.16916 115.82443 45.33847 79.89851 
617.08401 48.37097 144.69810 47.10226 115.68166 45.26441 79.76208 
617.51583 48.34010 144.51726 47.03581 115.78364 45.17360 79.85656 
617.94762 48.23271 144.54545 46.97646 115.71391 45.14846 79.82198 
618.37939 48.19329 144.26155 46.94172 115.62084 45.13741 79.76042 
618.81114 48.15005 144.34220 46.89579 115.58846 45.02177 79.73067 
619.24286 48.07952 144.31752 46.79195 115.47329 44.97195 79.80839 
619.67456 48.07215 144.14098 46.73703 115.40705 44.97739 79.75595 
620.10623 47.96666 144.19807 46.68961 115.48595 44.90269 79.70811 
620.53788 47.97922 144.04861 46.61677 115.27625 44.82148 79.62081 
620.96951 47.96753 143.99565 46.60348 115.35414 44.79941 79.67662 
621.40111 47.84103 143.99242 46.60355 115.44316 44.73579 79.65446 
621.83268 47.77523 144.00454 46.51955 115.31365 44.69623 79.65128 
622.26424 47.76775 143.77348 46.41519 115.29935 44.62429 79.59633 
622.69576 47.72627 143.68371 46.43262 115.19760 44.56794 79.57088 
623.12726 47.70052 143.73018 46.29884 115.13876 44.57135 79.62032 
623.55874 47.65556 143.82846 46.30415 115.21039 44.50260 79.50619 
623.99019 47.60638 143.72903 46.18363 115.13736 44.48174 79.58941 
624.42162 47.61763 143.61632 46.12844 115.09915 44.40967 79.49805 
624.85303 47.48374 143.57521 46.15764 115.14014 44.32162 79.44391 
625.28440 47.46497 143.45396 46.07023 115.08948 44.29708 79.57304 
625.71576 47.39852 143.47176 46.00331 114.94511 44.30855 79.50500 
626.14709 47.36596 143.40173 45.98973 114.99524 44.21506 79.45601 
626.57839 47.35501 143.38689 45.93384 114.92329 44.15194 79.33029 
627.00967 47.27452 143.31553 45.80664 114.97889 44.12533 79.38633 
627.44093 47.28133 143.05645 45.77768 114.78133 44.06442 79.49098 
627.87216 47.23160 143.15732 45.78769 114.81177 44.02785 79.43423 
628.30336 47.20189 143.10244 45.71404 114.70403 43.97183 79.34781 
628.73454 47.10229 143.07698 45.62740 114.73931 43.89857 79.32703 
629.16570 47.11832 142.99840 45.60462 114.64133 43.90442 79.32023 
629.59683 47.04477 142.99311 45.55982 114.71134 43.80805 79.28592 
630.02794 46.97738 143.03483 45.47399 114.61402 43.78595 79.30124 
630.45902 46.93388 142.75963 45.42694 114.53005 43.76633 79.31686 
630.89007 46.91653 142.85325 45.34215 114.52096 43.65380 79.30407 
631.32110 46.90060 142.76095 45.31404 114.53298 43.63964 79.27706 
631.75211 46.82137 142.73041 45.26448 114.47154 43.62565 79.23552 
632.18309 46.81244 142.79882 45.21305 114.46003 43.58456 79.24770 
632.61405 46.75017 142.64539 45.15857 114.42413 43.50904 79.22395 
633.04498 46.69881 142.57167 45.12447 114.35880 43.47950 79.25907 
633.47588 46.66247 142.57931 45.09304 114.42497 43.46994 79.24103 
633.90676 46.62983 142.52469 45.03153 114.35261 43.37452 79.20644 
634.33762 46.54307 142.49750 44.96920 114.30857 43.35097 79.20502 
634.76845 46.62186 142.30606 44.90649 114.14438 43.28445 79.18134 
635.19925 46.45029 142.38321 44.87683 114.35962 43.24821 79.15195 
635.63003 46.42337 142.26843 44.83346 114.16264 43.19612 79.16619 
636.06079 46.42903 142.30501 44.79058 114.22736 43.11741 79.04061 
636.49151 46.36112 142.08611 44.71862 114.13105 43.15435 79.09454 
636.92222 46.31760 142.20351 44.66881 114.15896 43.06054 79.14200 
637.35290 46.29664 142.19366 44.66692 114.07135 43.02616 78.96324 
637.78355 46.23340 142.15439 44.56562 114.03051 42.93896 79.07924 
638.21418 46.18713 142.09145 44.50383 114.00483 42.94539 79.04656 
638.64478 46.14344 141.91707 44.46043 114.04787 42.87370 78.98600 
639.07536 46.12285 141.99604 44.39094 114.03189 42.85368 79.03982 
639.50591 46.07578 141.94803 44.37137 113.92405 42.83625 78.99451 
639.93644 46.06023 142.03832 44.36159 114.01866 42.75761 78.93916 
640.36694 46.00880 141.82199 44.25830 113.96824 42.69214 78.89961 
640.79741 45.96538 141.84997 44.23745 113.86750 42.66933 78.96634 
641.22786 45.92461 141.82715 44.23500 113.85734 42.62495 78.96425 
641.65828 45.88259 141.68582 44.17168 113.80777 42.56203 78.90034 
642.08868 45.82519 141.66761 44.05838 113.88278 42.55092 78.95519 
642.51906 45.82632 141.69786 44.04619 113.88318 42.49068 78.93896 
642.94940 45.75548 141.69420 43.96597 113.95520 42.49636 78.98988 
643.37972 45.76238 141.53631 43.98180 113.87080 42.39211 78.99616 
643.81002 45.74721 141.53392 43.91566 113.66062 42.37205 78.92614 
644.24029 45.67903 141.50187 43.81468 113.78332 42.36128 78.92093 
644.67053 45.65312 141.47814 43.79025 113.65438 42.27417 78.82863 
645.10075 45.53532 141.43248 43.74140 113.61324 42.23643 78.86098 
645.53095 45.51458 141.37569 43.70564 113.72155 42.19802 78.86992 
645.96111 45.52289 141.39549 43.67589 113.74258 42.12150 78.87975 
646.39125 45.46890 141.20118 43.63063 113.65650 42.13681 78.78733 
646.82137 45.40731 141.27186 43.54425 113.67003 42.12382 78.91790 
647.25146 45.36371 141.28323 43.55505 113.50117 42.02416 78.78779 
647.68152 45.28291 141.16003 43.50958 113.51281 42.00291 78.81062 
648.11156 45.33961 141.24642 43.47400 113.57567 41.99171 78.83649 
648.54157 45.26144 141.14771 43.41452 113.45004 41.92327 78.82460 
648.97156 45.18827 141.13013 43.39231 113.49608 41.89544 78.73854 
649.40152 45.23053 141.11173 43.28847 113.48450 41.83158 78.80429 
649.83145 45.13262 141.11838 43.23677 113.57425 41.82171 78.76138 
650.26136 45.09472 141.08111 43.19550 113.55087 41.77933 78.75288 
650.69124 45.05697 141.04400 43.15438 113.52753 41.73707 78.74443 
651.12109 45.01937 141.00704 43.11342 113.50425 41.69495 78.73603 
651.55092 44.98192 140.97025 43.07261 113.48102 41.65296 78.72768 
651.98073 44.94462 140.93369 43.03196 113.45785 41.61112 78.71940 
652.41050 44.90746 140.89727 42.99146 113.43473 41.56940 78.71117 
652.84025 44.87045 140.86100 42.95111 113.41165 41.52782 78.70298 
653.26998 44.83359 140.82486 42.91092 113.38863 41.48637 78.69484 
653.69968 44.79687 140.78888 42.87088 113.36566 41.44506 78.68675 
654.12935 44.76029 140.75303 42.83099 113.34273 41.40388 78.67870 
654.55899 44.72386 140.71732 42.79126 113.31985 41.36283 78.67071 
654.98861 44.68757 140.68175 42.75167 113.29702 41.32192 78.66276 
655.41820 44.65142 140.64632 42.71224 113.27424 41.28114 78.65485 
655.84777 44.61542 140.61103 42.67295 113.25151 41.24049 78.64699 
656.27731 44.57955 140.57588 42.63382 113.22882 41.19997 78.63918 
656.70682 44.54383 140.54086 42.59483 113.20619 41.15958 78.63142 
657.13631 44.50824 140.50597 42.55599 113.18359 41.11933 78.62371 
657.56577 44.47280 140.47122 42.51730 113.16105 41.07921 78.61603 
657.99520 44.43749 140.43661 42.47876 113.13855 41.03922 78.60841 
658.42461 44.40232 140.40212 42.44037 113.11610 40.99936 78.60083 
658.85399 44.36729 140.36777 42.40212 113.09370 40.95964 78.59330 
659.28335 44.33239 140.33354 42.36402 113.07134 40.92004 78.58582 
659.71267 44.29763 140.29945 42.32606 113.04902 40.88058 78.57838 
660.14197 44.26300 140.26548 42.28825 113.02675 40.84124 78.57099 
660.57125 44.29039 140.43213 42.21937 113.00057 40.85969 78.60620 
661.00049 44.21591 140.44519 42.19092 112.98685 40.81921 78.51178 
661.42971 44.15402 140.40007 42.14240 113.01665 40.78151 78.55686 
661.85891 44.16589 140.28167 42.07129 112.85956 40.74320 78.51978 
662.28807 44.08438 140.38362 42.07471 113.04184 40.68343 78.56156 
662.71721 44.09050 140.33911 42.00241 112.94274 40.67395 78.56089 
663.14633 44.04256 140.23141 41.93807 112.93459 40.63451 78.51051 
663.57541 43.97481 140.23662 41.94151 112.92653 40.62219 78.54122 
664.00447 43.93903 140.39940 41.89119 113.02376 40.59950 78.49678 
664.43350 43.90745 140.15839 41.82025 112.94094 40.50033 78.44771 
664.86251 43.89591 140.22308 41.82005 112.94972 40.48166 78.41765 
665.29149 43.84074 140.09221 41.76402 112.85762 40.46527 78.50545 
665.72044 43.85740 140.17716 41.73679 112.92124 40.40159 78.46283 
666.14936 43.78785 140.09160 41.70509 112.80855 40.40714 78.50450 
666.57826 43.74089 140.08543 41.68024 112.82164 40.37321 78.43697 
667.00713 43.71180 140.06630 41.62620 112.77361 40.32588 78.56201 
667.43597 43.67329 140.14313 41.59315 112.82523 40.26569 78.44400 
667.86478 43.70678 139.99776 41.54003 112.87255 40.24981 78.48031 
668.29357 43.66605 140.06617 41.50661 112.90438 40.20775 78.48732 
668.72233 43.60494 139.98744 41.49070 112.77900 40.13921 78.45396 
669.15107 43.56041 139.91918 41.44434 112.68985 40.17313 78.41325 
669.57977 43.54156 139.98551 41.38523 112.80835 40.11014 78.42782 
670.00845 43.46806 139.94290 41.35602 112.62546 40.09836 78.45116 
670.43710 43.45026 139.86032 41.33167 112.76402 40.05662 78.44603 
670.86572 43.41053 139.84121 41.31250 112.74112 39.99662 78.43842 
671.29432 43.38689 139.94734 41.20006 112.77204 39.99652 78.40443 
671.72289 43.38970 139.90677 41.15326 112.69282 39.98332 78.45100 
672.15143 43.35081 139.83705 41.14836 112.78250 39.89514 78.35210 
672.57994 43.32015 139.82417 41.11423 112.64591 39.86299 78.44130 
673.00843 43.24477 139.67249 41.03920 112.75926 39.85732 78.41233 
673.43689 43.25302 139.83857 41.05834 112.75032 39.80445 78.40778 
673.86532 43.25089 139.71406 41.01757 112.69954 39.73101 78.39134 
674.29372 43.14902 139.74690 40.96341 112.59272 39.73583 78.40481 
674.72210 43.19636 139.75333 40.94482 112.67793 39.72190 78.30710 
675.15044 43.12859 139.66593 40.92484 112.69814 39.67202 78.49537 
675.57876 43.05287 139.68857 40.86851 112.70046 39.66712 78.31916 
676.00706 43.06704 139.55545 40.83874 112.58955 39.56229 78.45483 
676.43532 42.98166 139.63169 40.78073 112.63139 39.59611 78.42601 
676.86356 43.01049 139.65994 40.73266 112.59795 39.54940 78.38128 
677.29176 42.91236 139.56289 40.70305 112.58133 39.55725 78.34755 
677.71995 42.90146 139.66214 40.69207 112.63350 39.51479 78.25796 
678.14810 42.89484 139.51189 40.69380 112.64901 39.47518 78.36337 
678.57622 42.81567 139.57444 40.64617 112.57005 39.42818 78.31957 
679.00432 42.84931 139.55366 40.57208 112.53668 39.40234 78.30833 
679.43239 42.77657 139.60644 40.56937 112.53437 39.34867 78.37825 
679.86043 42.76363 139.62014 40.47826 112.60500 39.35875 78.31220 
680.28844 42.77347 139.54719 40.48230 112.61071 39.28169 78.33129 
680.71642 42.70213 139.46966 40.46780 112.45534 39.24794 78.34845 
681.14438 42.64015 139.52196 40.38988 112.56761 39.24729 78.34655 
681.57231 42.64162 139.48984 40.37657 112.51412 39.19345 78.34854 
682.00021 42.61539 139.51731 40.34313 112.49202 39.16535 78.26416 
682.42808 42.61046 139.37773 40.26266 112.58114 39.13235 78.24634 
682.85592 42.50048 139.41071 40.25960 112.55976 39.07629 78.35538 
683.28373 42.47774 139.48149 40.22545 112.47602 39.06650 78.36495 
683.71152 42.47385 139.36209 40.21020 112.49704 39.03783 78.31613 
684.13928 42.48085 139.36864 40.15728 112.55865 38.96304 78.27692 
684.56701 42.45414 139.38380 40.14379 112.50319 38.97851 78.23144 
684.99471 42.35208 139.45228 40.11146 112.36901 38.95863 78.26852 
685.42238 42.40224 139.28544 40.09106 112.43460 38.87642 78.29010 
685.85002 42.33551 139.28229 40.08346 112.53456 38.86143 78.26523 
686.27764 42.36886 139.34003 40.01339 112.38198 38.86126 78.25141 
686.70522 42.29568 139.20094 39.99826 112.47000 38.82641 78.30904 
687.13278 42.25812 139.25579 39.91930 112.54075 38.79197 78.24901 
687.56031 42.21776 139.32095 39.92017 112.40660 38.72290 78.34488 
687.98781 42.20183 139.13952 39.88565 112.38678 38.72185 78.26314 
688.41528 42.21600 139.37650 39.82635 112.37633 38.64867 78.32839 
688.84273 42.14873 139.25175 39.75690 112.45651 38.64714 78.30173 
689.27014 42.12836 139.35864 39.75356 112.47110 38.65494 78.25129 
689.69752 42.04294 139.24576 39.72881 112.38339 38.60447 78.28592 
690.12488 42.04831 139.25585 39.70913 112.46188 38.54744 78.22743 
690.55221 42.00883 139.05630 39.69425 112.38743 38.58084 78.22893 
690.97951 41.98932 139.16341 39.63754 112.47368 38.52749 78.22816 
691.40677 41.96932 139.16945 39.58577 112.32723 38.50544 78.24209 
691.83401 41.97479 139.29821 39.59653 112.40487 38.48425 78.20915 
692.26123 41.94617 139.13841 39.57683 112.48219 38.42326 78.27242 
692.68841 41.85140 139.17004 39.50760 112.41511 38.40332 78.30806 
693.11556 41.84277 139.20792 39.48784 112.38668 38.34506 78.31149 
693.54268 41.82545 139.06226 39.44275 112.44034 38.33016 78.31891 
693.96978 41.84483 139.22894 39.39500 112.36529 38.28422 78.25870 
694.39684 41.72574 139.16887 39.39211 112.36596 38.28080 78.22124 
694.82388 41.71902 139.11218 39.33966 112.39448 38.25276 78.30754 
695.25089 41.72366 139.11656 39.35483 112.31391 38.20728 78.22636 
695.67786 41.68213 139.07205 39.31168 112.38378 38.16302 78.35062 
696.10481 41.65126 139.06357 39.25071 112.36457 38.17377 78.24939 
696.53173 41.64984 139.14980 39.24572 112.36594 38.15822 78.19729 
696.95862 41.57096 139.08038 39.20623 112.39169 38.13245 78.21503 
697.38548 41.55458 139.10990 39.15272 112.38147 38.09846 78.27176 
697.81231 41.55722 139.13888 39.16050 112.43367 38.06156 78.26953 
698.23911 41.56256 138.99566 39.10234 112.28577 38.01076 78.24121 
698.66588 41.50842 139.14260 39.08407 112.31320 37.98556 78.24882 
699.09262 41.46704 139.14907 39.05878 112.44618 37.97649 78.22340 
699.51933 41.44662 138.98928 39.00492 112.40421 37.91633 78.26133 
699.94601 41.41146 139.03937 38.98087 112.39653 37.87262 78.27685 
700.37266 41.40909 138.98717 38.91690 112.35290 37.86506 78.33791 
700.79929 41.37060 139.01631 38.94260 112.45930 37.87657 78.26161 
701.22588 41.36376 138.97952 38.92623 112.32974 37.79664 78.27893 
701.65244 41.30935 138.97197 38.88336 112.37259 37.80535 78.21325 
702.07897 41.30163 139.00247 38.82308 112.27230 37.77237 78.26172 
702.50548 41.27808 138.90667 38.81583 112.32939 37.73732 78.30331 
702.93195 41.22929 139.00945 38.75649 112.36050 37.68920 78.24890 
703.35839 41.19521 139.02219 38.72698 112.31269 37.70650 78.22028 
703.78480 41.19266 138.92942 38.73984 112.40276 37.65101 78.23232 
704.21119 41.18066 138.96913 38.70484 112.43413 37.65555 78.27319 
704.63754 41.16063 138.93282 38.61745 112.29174 37.58819 78.25734 
705.06386 41.09957 138.92939 38.63159 112.41207 37.56383 78.25835 
705.49015 41.06605 139.00690 38.55792 112.47748 37.53033 78.22264 
705.91641 41.04568 138.95226 38.57949 112.37879 37.52410 78.33142 
706.34265 41.06936 138.89453 38.54458 112.33956 37.52145 78.26005 
706.76885 41.00594 138.82883 38.54322 112.35483 37.42927 78.23562 
707.19502 41.00929 138.88681 38.52196 112.41298 37.46491 78.31322 
707.62116 40.96533 138.96203 38.47227 112.36172 37.39490 78.28050 
708.04727 40.92490 138.89387 38.41195 112.41286 37.41824 78.26989 
708.47335 40.91981 138.93731 38.41205 112.34201 37.36572 78.26007 
708.89940 40.91976 138.90682 38.41305 112.28476 37.30305 78.31971 
709.32542 40.84157 138.80816 38.33190 112.33254 37.33925 78.31351 
709.75140 40.84509 138.81805 38.33422 112.38144 37.30480 78.26069 
710.17736 40.84156 138.83890 38.30300 112.28812 37.28212 78.24891 
710.60329 40.79112 138.83320 38.27315 112.36202 37.21345 78.32265 
711.02918 40.79810 138.86306 38.24085 112.33766 37.23011 78.26427 
711.45505 40.72010 138.91894 38.19094 112.40834 37.16148 78.30715 
711.88088 40.68128 138.78719 38.15598 112.33836 37.13763 78.23237 
712.30669 40.67009 139.01331 38.13099 112.51470 37.10127 78.16987 
712.73246 40.64108 139.01442 38.10148 112.50645 37.06569 78.17979 
713.15820 40.58499 138.81914 38.08793 112.43550 37.05745 78.22253 
713.58391 40.60520 138.96182 38.05855 112.49506 37.07545 78.25572 
714.00959 40.59023 138.87518 38.00543 112.43123 37.01383 78.29073 
714.43524 40.55442 138.90215 37.99380 112.42986 36.97377 78.25344 
714.86086 40.52266 138.95050 37.98135 112.41176 36.92073 78.26538 
715.28644 40.50224 138.88429 37.98557 112.45163 36.98523 78.13145 
715.71200 40.49106 138.96165 37.92743 112.29102 36.90253 78.17853 
716.13752 40.45462 138.94769 37.92738 112.44877 36.89654 78.30657 
716.56302 40.45917 138.81575 37.90117 112.46253 36.89769 78.21227 
716.98848 40.39898 138.93360 37.87873 112.39308 36.82272 78.23073 
717.41391 40.39160 138.85265 37.84217 112.40739 36.78487 78.35836 
717.83931 40.39662 138.94783 37.77907 112.38591 36.77976 78.25980 
718.26468 40.37111 138.81213 37.74985 112.49248 36.72136 78.32230 
718.69001 40.31994 138.89110 37.77083 112.43973 36.78114 78.17590 
719.11532 40.28626 138.89518 37.68928 112.44644 36.71291 78.23280 
719.54059 40.27493 138.79059 37.70591 112.46278 36.66393 78.23844 
719.96584 40.27382 138.83559 37.71425 112.47490 36.65237 78.28421 
720.39105 40.25823 138.91806 37.66080 112.46697 36.64870 78.27860 
720.81622 40.18273 138.80835 37.63047 112.50451 36.63996 78.23304 
721.24137 40.19893 138.87314 37.59269 112.39657 36.58798 78.24058 
721.66649 40.17481 138.87569 37.57468 112.55489 36.56292 78.31674 
722.09157 40.19043 138.91278 37.49536 112.56636 36.53709 78.30556 
722.51662 40.11588 138.86162 37.47540 112.55383 36.51144 78.33596 
722.94164 40.08085 138.92846 37.44170 112.47551 36.47379 78.32014 
723.36663 40.08713 138.82049 37.41929 112.52137 36.46235 78.37444 
723.79159 40.06354 138.93800 37.41172 112.52366 36.45144 78.39554 
724.21651 40.04126 138.87074 37.38034 112.51098 36.39467 78.30038 
724.64140 40.07216 138.83823 37.34216 112.54660 36.37831 78.34717 
725.06627 39.94315 138.78748 37.34007 112.51533 36.34957 78.26983 
725.49109 39.94466 138.85406 37.29265 112.62780 36.35364 78.28366 
725.91589 39.91014 138.86041 37.26792 112.52482 36.28990 78.34327 
726.34065 39.87277 138.88441 37.26087 112.54961 36.28706 78.31940 
726.76539 39.91472 138.82171 37.22147 112.59778 36.25559 78.23240 
727.19009 39.85891 138.83672 37.19289 112.54330 36.21209 78.36069 
727.61475 39.89702 138.96084 37.17929 112.54377 36.24811 78.37294 
728.03939 39.83182 138.84604 37.14584 112.56887 36.20861 78.35009 
728.46399 39.82131 138.84033 37.10667 112.52367 36.11744 78.29742 
728.88856 39.81588 138.81635 37.09604 112.51580 36.11468 78.37221 
729.31310 39.79515 138.91700 37.07186 112.57452 36.13533 78.27718 
729.73760 39.73122 138.79973 37.10080 112.52871 36.07844 78.25331 
730.16208 39.75439 138.79097 37.01736 112.61695 36.06591 78.33693 
730.58652 39.73270 138.74098 37.01104 112.51890 36.03541 78.39508 
731.01092 39.66504 138.86407 37.00220 112.41888 36.05121 78.39721 
731.43530 39.66901 139.00487 36.96435 112.53868 36.01097 78.38273 
731.85964 39.65058 138.92190 36.91665 112.63235 35.97247 78.37095 
732.28395 39.63672 138.81708 36.96608 112.57205 35.96529 78.37685 
732.70823 39.64301 138.82787 36.91496 112.60501 35.94563 78.35985 
733.13247 39.58362 138.93137 36.86412 112.55852 35.90156 78.34091 
733.55668 39.58026 138.89415 36.81794 112.68171 35.87261 78.41158 
733.98086 39.54496 138.85172 36.80493 112.74346 35.86291 78.36110 
734.40500 39.51581 138.86957 36.80002 112.60459 35.82997 78.41567 
734.82912 39.50656 138.77899 36.76246 112.74293 35.84475 78.38177 
735.25320 39.47389 138.79585 36.71302 112.59937 35.79165 78.37828 
735.67724 39.45005 138.93522 36.76341 112.63187 35.75264 78.43119 
736.10125 39.44073 139.00366 36.71532 112.58089 35.77219 78.40770 
736.52523 39.41184 138.91822 36.72231 112.62303 35.71983 78.28642 
736.94918 39.37452 138.92317 36.64408 112.62642 35.69766 78.39040 
737.37309 39.36740 138.86387 36.62888 112.67942 35.62896 78.48310 
737.79697 39.32514 138.85111 36.59957 112.64165 35.62503 78.53008 
738.22082 39.34981 139.03240 36.57764 112.57239 35.63243 78.36573 
738.64463 39.28604 138.85161 36.56733 112.62373 35.62723 78.41795 
739.06841 39.30453 138.92525 36.53105 112.72642 35.63768 78.40148 
739.49216 39.26626 139.00391 36.51930 112.61007 35.56647 78.47324 
739.91587 39.24199 138.91344 36.49635 112.53796 35.54493 78.47312 
740.33955 39.26636 138.90207 36.48306 112.80836 35.57859 78.35426 
740.76319 39.21686 138.96003 36.40929 112.67160 35.51191 78.47356 
741.18680 39.17474 138.89472 36.43793 112.78705 35.48169 78.43946 
741.61038 39.09905 138.97796 36.37763 112.71204 35.44543 78.51268 
742.03392 39.12466 138.96870 36.34895 112.73364 35.40289 78.45149 
742.45743 39.13845 138.96009 36.34594 112.75435 35.38328 78.45883 
742.88091 39.15831 138.97302 36.34478 112.67630 35.37521 78.50086 
743.30435 39.11888 138.96597 36.35289 112.72919 35.36470 78.41879 
743.72776 39.03508 138.87719 36.29965 112.71363 35.33537 78.44233 
744.15114 39.05323 138.94147 36.31258 112.68874 35.31266 78.46984 
744.57448 39.07283 138.86718 36.22790 112.76727 35.31124 78.42162 
744.99778 39.01061 138.85946 36.22997 112.74676 35.28866 78.41148 
745.42105 38.98271 138.90526 36.21755 112.98155 35.26796 78.46628 
745.84429 39.01149 138.93628 36.17214 112.79424 35.24546 78.49298 
746.26750 38.96513 139.03924 36.14557 112.81993 35.20697 78.47170 
746.69066 38.90821 139.06452 36.14849 112.82715 35.17679 78.46883 
747.11380 38.92428 138.99628 36.07977 112.86976 35.15766 78.46860 
747.53690 38.89744 138.91601 36.07125 112.92134 35.12590 78.47813 
747.95997 38.88243 138.94270 36.07167 112.80787 35.10795 78.55334 
748.38300 38.84611 139.11918 36.03269 112.77598 35.11143 78.50016 
748.80600 38.82172 139.15477 36.02365 112.83441 35.08655 78.57580 
749.22896 38.83715 138.97677 36.00051 112.88325 35.05246 78.51078 
749.65189 38.79920 139.08235 35.98334 112.87957 35.03110 78.51009 
750.07478 38.81485 139.04303 35.97335 112.94813 34.97502 78.55726 
750.49764 38.79580 139.10464 35.95459 112.91425 34.99520 78.49459 
750.92046 38.77269 139.02104 35.91774 112.91141 34.95500 78.48340 
751.34325 38.71118 138.90601 35.90545 112.93228 34.91610 78.55629 
751.76601 38.71663 139.02008 35.86844 112.92946 34.92278 78.56598 
752.18872 38.73993 138.94494 35.88222 112.89153 34.91355 78.63996 
752.61141 38.70533 139.04796 35.83014 112.87588 34.88732 78.52241 
753.03406 38.63832 139.01206 35.81089 112.97221 34.87257 78.52983 
753.45667 38.63127 139.02529 35.77392 112.92354 34.85537 78.48762 
753.87925 38.61832 139.06274 35.77342 112.92166 34.87683 78.51288 
754.30180 38.58490 139.10616 35.75362 112.96098 34.81083 78.56026 
754.72431 38.63635 139.08992 35.72736 112.83622 34.80750 78.47744 
755.14678 38.56474 138.92594 35.64756 112.95301 34.72953 78.54687 
755.56922 38.59261 139.01505 35.67642 112.88299 34.74638 78.54977 
755.99162 38.53979 139.09068 35.68227 112.90430 34.71475 78.53059 
756.41399 38.46621 139.08229 35.64823 112.93227 34.72342 78.53639 
756.83632 38.50734 139.00879 35.62591 112.87794 34.67940 78.56841 
757.25862 38.50084 139.07456 35.57794 113.01413 34.69343 78.58266 
757.68088 38.49045 139.02912 35.61884 112.94429 34.68682 78.61547 
758.10311 38.43555 138.99323 35.54555 112.99092 34.58478 78.66699 
758.52530 38.42892 139.07837 35.54640 113.04174 34.60316 78.59314 
758.94745 38.48548 139.19402 35.55085 113.06014 34.63441 78.58998 
759.36957 38.36123 139.12121 35.49680 112.96891 34.60656 78.61573 
759.79165 38.39182 139.21829 35.45760 113.09293 34.55004 78.66932 
760.21370 38.34540 139.18593 35.45064 113.02981 34.55656 78.62225 
760.63571 38.33571 139.14956 35.44017 113.15137 34.52082 78.63355 
761.05769 38.36707 139.06728 35.40319 113.07787 34.49008 78.64994 
761.47963 38.26202 139.12376 35.34357 113.04470 34.46282 78.57412 
761.90153 38.25812 139.05187 35.36037 113.13498 34.45130 78.59154 
762.32340 38.24659 139.05279 35.36564 113.08994 34.41284 78.59044 
762.74523 38.30549 139.09123 35.31330 113.09519 34.40350 78.64661 
763.16702 38.25533 139.17003 35.33900 113.10187 34.36335 78.68319 
763.58878 38.22896 139.11318 35.28554 113.20589 34.31594 78.66682 
764.01050 38.23594 139.13594 35.25995 113.05724 34.27842 78.62129 
764.43219 38.21963 139.29405 35.26537 113.12132 34.31072 78.67528 
764.85384 38.17116 139.23411 35.19260 113.14348 34.31245 78.65634 
765.27545 38.15987 139.17963 35.19555 113.24737 34.28722 78.65014 
765.69703 38.13246 139.19902 35.19705 113.13180 34.25281 78.70958 
766.11857 38.13421 139.17195 35.16256 113.29963 34.23156 78.63561 
766.54008 38.11202 139.10522 35.12640 113.23830 34.24092 78.60606 
766.96154 38.08583 139.31518 35.10921 113.18805 34.15893 78.70001 
767.38298 38.08155 139.21655 35.09209 113.21762 34.13936 78.69915 
767.80437 38.10351 139.29315 35.10677 113.26845 34.16560 78.79421 
768.22573 38.02559 139.21998 35.09309 113.12003 34.12805 78.75691 
768.64705 38.04525 139.18312 35.04195 113.23598 34.09952 78.73265 
769.06833 37.96271 139.09797 35.02087 113.30975 34.11750 78.78623 
769.48958 37.98089 139.33325 34.95892 113.32626 34.07021 78.80031 
769.91079 37.96073 139.21835 35.03759 113.27737 34.07580 78.77178 
770.33196 37.95068 139.29675 34.94729 113.28109 34.05217 78.77506 
770.75310 37.92313 139.22521 34.93457 113.39100 34.03305 78.75732 
771.17419 37.94960 139.22127 34.93669 113.31360 33.98875 78.75093 
771.59526 37.92144 139.18073 34.89263 113.31383 33.97582 78.72101 
772.01628 37.89270 139.28859 34.89492 113.25879 33.96417 78.83916 
772.43727 37.88018 139.20515 34.88308 113.22355 33.94352 78.83275 
772.85822 37.87591 139.26841 34.84710 113.38676 33.91964 78.87588 
773.27913 37.83843 139.38251 34.80474 113.37125 33.91891 78.86697 
773.70000 37.82121 139.18791 34.83563 113.36297 33.92200 78.80414 
774.12084 37.79780 139.36173 34.79456 113.37829 33.87373 78.87308 
774.54164 37.79741 139.36820 34.80605 113.45082 33.86928 78.78468 
774.96240 37.74842 139.34118 34.79471 113.40874 33.83494 78.83799 
775.38313 37.77188 139.42688 34.73776 113.36760 33.82032 78.91259 
775.80381 37.76490 139.32941 34.68081 113.38677 33.79159 78.80473 
776.22446 37.71619 139.33807 34.70395 113.42070 33.77294 78.88305 
776.64507 37.74006 139.36024 34.71047 113.43801 33.75293 78.90167 
777.06565 37.66640 139.52084 34.70169 113.42410 33.73182 78.86723 
777.48618 37.68137 139.29335 34.68250 113.47298 33.70650 78.91913 
777.90668 37.64634 139.29758 34.63399 113.48355 33.73226 78.84765 
778.32714 37.63978 139.41280 34.60578 113.47027 33.70149 78.85168 
778.74756 37.67952 139.45875 34.62458 113.37203 33.65815 78.92885 
779.16795 37.59978 139.45419 34.51686 113.57476 33.66309 78.92863 
779.58829 37.61443 139.45487 34.59943 113.55637 33.62435 78.94126 
780.00860 37.63389 139.35949 34.54021 113.51163 33.58246 78.84965 
780.42887 37.58497 139.40475 34.48775 113.46229 33.60890 78.85214 
780.84910 37.59262 139.52925 34.52941 113.52609 33.56331 78.93625 
781.26929 37.61562 139.45810 34.51127 113.53561 33.52867 78.94758 
781.68944 37.62688 139.56546 34.48445 113.54112 33.50987 78.88536 
782.10956 37.53326 139.41097 34.47097 113.48774 33.55150 78.94681 
782.52963 37.53480 139.55230 34.50103 113.50458 33.50681 78.94959 
782.94967 37.49968 139.48053 34.41394 113.63252 33.44317 78.96046 
783.36967 37.49860 139.48901 34.44760 113.57410 33.41635 79.01612 
783.78963 37.46825 139.57903 34.39622 113.61237 33.43949 78.87252 
784.20955 37.47384 139.62359 34.38427 113.67584 33.38781 79.02316 
784.62944 37.49782 139.51954 34.30788 113.57681 33.40421 78.88859 
785.04928 37.39212 139.48607 34.33696 113.54843 33.36234 79.02062 
785.46909 37.41226 139.65744 34.34577 113.63146 33.39867 78.99294 
785.88885 37.35987 139.46547 34.28740 113.66258 33.33872 78.97774 
786.30858 37.38113 139.56485 34.29730 113.69590 33.34229 78.99281 
786.72827 37.35665 139.60272 34.28840 113.69914 33.27066 79.07703 
787.14792 37.34133 139.65370 34.24412 113.77269 33.24386 79.05771 
787.56753 37.32817 139.62640 34.23599 113.63117 33.24671 79.09268 
787.98710 37.33960 139.60888 34.23184 113.75355 33.27936 79.01411 
788.40663 37.29496 139.59663 34.17552 113.75176 33.25679 79.01366 
788.82612 37.29479 139.61570 34.17909 113.86039 33.27095 79.00962 
789.24557 37.27726 139.68897 34.15968 113.74234 33.18437 78.90909 
789.66499 37.22762 139.67480 34.13514 113.88231 33.20898 79.01512 
790.08436 37.24131 139.59752 34.13179 113.73013 33.20197 79.04953 
790.50369 37.29765 139.60075 34.11501 113.82921 33.14198 79.05667 
790.92299 37.23421 139.75525 34.05625 113.83014 33.10306 79.13719 
791.34224 37.22702 139.64427 34.05770 113.83049 33.07128 79.10189 
791.76146 37.20024 139.69363 34.03193 113.90988 33.07113 79.09606 
792.18063 37.18055 139.76612 34.04538 113.86487 33.08761 79.14108 
792.59977 37.15507 139.77210 34.03274 113.87967 33.07725 79.09686 
793.01886 37.17746 139.78427 33.98118 113.92072 33.04025 79.16487 
793.43792 37.17827 139.72209 33.98473 113.81694 33.05485 79.07333 
793.85693 37.16977 139.90497 33.96004 113.80878 32.96679 79.06701 
794.27591 37.12905 139.85735 33.96315 113.91765 32.95878 79.12620 
794.69484 37.13121 139.74060 33.89569 114.00771 32.97099 79.15478 
795.11374 37.09711 139.77871 33.87052 113.92772 32.94053 79.11049 
795.53259 37.10963 139.83792 33.85219 113.95256 32.94523 79.19621 
795.95140 37.07610 139.78386 33.88833 114.00899 32.98011 79.08645 
796.37018 37.06643 139.86512 33.85046 113.94082 32.88231 79.07820 
796.78891 37.02890 139.96187 33.81189 113.95397 32.88437 79.16478 
797.20760 37.01855 139.89585 33.87646 113.88127 32.90777 79.11601 
797.62626 36.97181 139.87132 33.76810 114.11462 32.86956 79.16820 
798.04487 37.01050 139.87734 33.78642 113.96784 32.84593 79.18393 
798.46344 36.98034 139.87229 33.77971 114.02462 32.79206 79.22848 
798.88197 36.98514 139.91189 33.77067 113.98608 32.78452 79.16031 
799.30046 36.97378 140.01724 33.71254 113.98414 32.76831 79.22915 
799.71891 36.93840 140.00694 33.70648 114.12153 32.76848 79.22783 
800.13732 36.92468 139.88049 33.71522 114.04875 32.74382 79.19777 
800.55568 36.94942 140.00014 33.63346 114.27123 32.69280 79.18965 
800.97401 36.89308 140.03792 33.68564 114.07071 32.71993 79.26265 
801.39229 36.86461 140.10897 33.65598 114.21538 32.68521 79.22988 
801.81054 36.85974 140.09996 33.58443 114.21187 32.70573 79.35591 
802.22874 36.88524 140.02020 33.62549 114.11622 32.61335 79.27990 
802.64690 36.82236 140.05963 33.61083 114.14068 32.61507 79.24754 
803.06502 36.82980 140.07433 33.58481 114.24024 32.62568 79.26198 
803.48310 36.80798 140.08761 33.52142 114.17396 32.59481 79.26639 
803.90114 36.81519 140.01537 33.55558 114.16236 32.57990 79.26324 
804.31913 36.85646 140.07234 33.59257 114.15718 32.59957 79.25955 
804.73709 36.78437 140.21606 33.56324 114.24052 32.55517 79.24776 
805.15500 36.77058 140.04709 33.50873 114.35649 32.52573 79.35026 
805.57287 36.71817 139.97918 33.51421 114.15151 32.47333 79.32649 
805.99070 36.70222 140.09527 33.50509 114.16554 32.52191 79.28643 
806.40849 36.69431 140.04955 33.45238 114.29205 32.52609 79.19540 
806.82623 36.72336 140.06948 33.48179 114.24162 32.44809 79.25119 
807.24394 36.70326 140.10426 33.40749 114.31752 32.48451 79.24221 
807.66160 36.69714 140.10817 33.42176 114.32297 32.46807 79.34622 
808.07922 36.68038 140.06198 33.41853 114.40729 32.43155 79.37958 
808.49680 36.68012 140.22284 33.42291 114.38163 32.40131 79.39314 
808.91433 36.65994 140.19402 33.39432 114.35647 32.40566 79.33732 
809.33182 36.60968 140.09562 33.39358 114.34510 32.40523 79.36456 
809.74928 36.62122 140.24576 33.38555 114.31115 32.32391 79.33383 
810.16668 36.61766 140.01067 33.31857 114.46573 32.35916 79.34969 
810.58405 36.65338 140.17044 33.30795 114.43638 32.34755 79.42204 
811.00138 36.58844 140.13729 33.30723 114.38264 32.31394 79.43756 
811.41866 36.60420 140.13594 33.29889 114.45706 32.31748 79.42765 
811.83590 36.57363 140.28516 33.31407 114.35484 32.28395 79.33486 
812.25309 36.55557 140.09259 33.24846 114.40203 32.22476 79.38101 
812.67025 36.54166 140.16036 33.24746 114.51415 32.23798 79.47689 
813.08736 36.50603 140.12514 33.26079 114.37764 32.26107 79.45287 
813.50443 36.52195 140.18890 33.20200 114.52650 32.22356 79.53929 
813.92145 36.54615 140.06325 33.18271 114.51313 32.20668 79.53559 
814.33843 36.49126 140.19040 33.22674 114.53885 32.19262 79.43474 
814.75537 36.52179 140.13178 33.18538 114.45777 32.19599 79.46281 
815.17227 36.43910 140.17921 33.17817 114.68197 32.10976 79.57518 
815.58912 36.44824 140.17188 33.18000 114.48578 32.15353 79.54709 
816.00594 36.45364 140.10039 33.14861 114.53547 32.15202 79.58100 
816.42270 36.46539 140.20688 33.15707 114.53577 32.12109 79.51435 
816.83943 36.39262 140.26359 33.15384 114.53734 32.11985 79.55415 
817.25611 36.43211 140.29753 33.07615 114.65699 32.07615 79.54929 
817.67274 36.41030 140.28193 33.10394 114.57860 32.10275 79.58169 
818.08934 36.38740 140.22205 33.06967 114.78163 32.03387 79.50338 
818.50589 36.39026 140.31137 33.03772 114.56840 32.02863 79.57247 
818.92240 36.36031 140.36138 33.05738 114.65327 32.00981 79.55502 
819.33886 36.37311 140.37480 33.01498 114.65451 32.00528 79.55045 
819.75528 36.36948 140.48725 32.98947 114.78437 31.95848 79.58379 
820.17165 36.31875 140.39552 33.00263 114.77517 31.96464 79.58174 
820.58799 36.32524 140.35799 32.95120 114.70298 31.93055 79.59581 
821.00427 36.31795 140.36218 32.96653 114.79697 31.92122 79.58469 
821.42052 36.29952 140.46416 32.94668 114.62029 31.99283 79.56639 
821.83672 36.28713 140.44323 32.91674 114.80380 31.91175 79.67059 
822.25287 36.28232 140.43178 32.92826 114.84284 31.86982 79.66746 
822.66898 36.27491 140.39072 32.91520 114.77989 31.83422 79.70285 
823.08505 36.24608 140.52912 32.90578 114.90174 31.89429 79.70929 
823.50108 36.23209 140.42158 32.86248 114.90903 31.82333 79.62108 
823.91705 36.21533 140.57827 32.87480 114.82443 31.84535 79.63445 
824.33299 36.20778 140.48176 32.82245 114.85679 31.86570 79.68276 
824.74888 36.22290 140.52225 32.82860 114.88732 31.80818 79.79613 
825.16472 36.19701 140.45647 32.77985 114.92185 31.78654 79.67885 
825.58053 36.18412 140.52571 32.80559 114.92885 31.78757 79.66460 
825.99628 36.14298 140.41495 32.77493 114.92493 31.75070 79.73398 
826.41199 36.18739 140.52735 32.76172 115.00967 31.71338 79.70022 
826.82766 36.14590 140.59429 32.76726 114.97840 31.73440 79.69285 
827.24328 36.16977 140.54783 32.72462 114.96840 31.73034 79.69974 
827.65886 36.11329 140.58784 32.69380 115.02972 31.66612 79.72867 
828.07439 36.09023 140.61955 32.69384 114.90604 31.65305 79.76350 
828.48988 36.09749 140.57275 32.67784 115.02124 31.67667 79.69942 
828.90532 36.06573 140.53797 32.66474 115.08043 31.65146 79.78025 
829.32072 36.10679 140.62240 32.60083 115.13534 31.60058 79.65218 
829.73607 36.05153 140.73623 32.61886 115.02402 31.65340 79.69180 
830.15138 36.03592 140.74229 32.61219 115.12839 31.53202 79.77221 
830.56664 36.04150 140.76337 32.61697 115.17106 31.54831 79.75313 
830.98186 36.02917 140.72582 32.56500 115.16479 31.53217 79.72682 
831.39703 36.01067 140.58073 32.56713 115.17390 31.53883 79.76244 
831.81215 36.00539 140.81477 32.53097 115.21287 31.53123 79.78862 
832.22723 36.05427 140.71595 32.51485 115.22951 31.50964 79.74532 
832.64226 35.98571 140.75838 32.52962 115.08616 31.48685 79.69423 
833.05725 35.95438 140.83355 32.48338 115.25606 31.48478 79.70579 
833.47219 35.93904 140.85210 32.45800 115.19262 31.44325 79.83217 
833.88709 35.92992 140.90180 32.44713 115.20271 31.40576 79.73955 
834.30194 35.97061 140.90484 32.46399 115.30924 31.40096 79.89776 
834.71674 35.93077 140.92625 32.42182 115.23152 31.38857 79.77041 
835.13150 35.93411 140.89379 32.42964 115.14945 31.36919 79.78358 
835.54622 35.94963 140.84724 32.37554 115.21740 31.36780 79.86105 
835.96088 35.88774 140.85928 32.37903 115.27004 31.32957 79.85790 
836.37550 35.88584 140.84722 32.36688 115.28765 31.31783 79.85354 
836.79007 35.87197 140.95927 32.36635 115.36409 31.34568 79.91340 
837.20460 35.81894 140.91590 32.34222 115.38563 31.28913 79.90783 
837.61908 35.86233 140.88802 32.32806 115.30958 31.23334 79.88464 
838.03352 35.81779 140.81288 32.30958 115.25014 31.24350 79.90724 
838.44790 35.83466 140.93773 32.31844 115.34405 31.28594 79.82848 
838.86224 35.85238 141.03864 32.27772 115.36371 31.22441 79.91908 
839.27654 35.80432 140.92968 32.25604 115.42797 31.23630 79.92831 
839.69079 35.82351 141.02168 32.25992 115.41303 31.18749 80.00795 
840.10499 35.83267 141.01788 32.22326 115.36998 31.17752 79.99068 
840.51914 35.81059 140.92669 32.23264 115.41011 31.18066 79.96933 
840.93325 35.78496 140.90120 32.23160 115.42437 31.17159 79.95394 
841.34731 35.78994 140.92273 32.24492 115.36148 31.12591 80.02409 
841.76132 35.76478 140.96946 32.19220 115.40921 31.16890 80.03395 
842.17529 35.73102 141.02796 32.18573 115.46462 31.10416 80.11454 
842.58920 35.74871 141.07937 32.21516 115.48017 31.08730 80.07415 
843.00308 35.73306 140.92071 32.16007 115.50262 31.07311 80.09502 
843.41690 35.70887 141.03875 32.13850 115.49385 31.10447 80.06500 
843.83067 35.70000 141.00407 32.13403 115.48900 31.07542 80.12064 
844.24440 35.69182 140.92983 32.06946 115.59118 31.06991 80.04954 
844.65808 35.69581 140.89824 32.10192 115.54608 31.04533 80.08586 
845.07172 35.70837 141.02055 32.06049 115.52618 31.01248 80.11272 
845.48530 35.68770 141.06025 32.04608 115.62994 31.01403 80.17168 
845.89884 35.65843 141.00589 32.02314 115.63727 30.97536 80.09859 
846.31233 35.69426 141.01378 32.01537 115.67941 30.97978 80.14198 
846.72577 35.66188 140.98279 32.00899 115.69273 30.95574 80.12384 
847.13917 35.63445 141.10833 31.98988 115.63432 30.96903 80.10669 
847.55251 35.67896 141.13530 31.98971 115.71285 30.96803 80.18283 
847.96581 35.62536 141.13147 31.93478 115.74913 30.90190 80.14606 
848.37906 35.61359 141.11950 31.93311 115.84509 30.88280 80.13426 
848.79226 35.62055 141.03331 31.91204 115.80614 30.89253 80.19472 
849.20542 35.62172 141.10347 31.93491 115.81167 30.88325 80.23700 
849.61852 35.59880 141.12637 31.93092 115.78153 30.88261 80.19739 
850.03158 35.60278 141.03926 31.90572 115.84381 30.85212 80.14887 
850.44459 35.58124 141.07039 31.88696 115.87586 30.82667 80.23123 
850.85755 35.60055 141.21762 31.88145 115.86866 30.86042 80.24868 
851.27046 35.55917 141.13495 31.88096 115.79571 30.78047 80.13688 
851.68332 35.54562 141.21244 31.82984 115.94456 30.80167 80.23903 
852.09613 35.56221 141.16528 31.86453 115.90393 30.80825 80.21911 
852.50890 35.53159 141.21167 31.83610 115.95333 30.72093 80.18208 
852.92161 35.50794 141.11792 31.80179 115.94978 30.69226 80.25854 
853.33428 35.51234 141.20985 31.82960 116.01493 30.71295 80.25062 
853.74690 35.48342 141.18661 31.78649 116.03032 30.69258 80.25155 
854.15947 35.49746 141.34073 31.77296 115.95430 30.68658 80.27162 
854.57198 35.52483 141.22934 31.78334 115.95316 30.67183 80.23135 
854.98445 35.49963 141.21959 31.74118 116.03568 30.67879 80.27201 
855.39687 35.45187 141.30126 31.71355 116.04191 30.66224 80.29958 
855.80925 35.47173 141.20203 31.74733 116.06208 30.60968 80.37542 
856.22157 35.45604 141.31440 31.72804 116.14611 30.62418 80.32234 
856.63384 35.47368 141.32405 31.71393 116.08274 30.63613 80.32633 
857.04606 35.45454 141.33590 31.70197 116.15912 30.58933 80.26445 
857.45823 35.45520 141.21506 31.72314 116.10429 30.58643 80.31627 
857.87036 35.40667 141.30077 31.69185 116.13692 30.55202 80.26872 
858.28243 35.41451 141.31112 31.68078 116.13552 30.56505 80.31221 
858.69445 35.41878 141.28959 31.65388 116.18131 30.51840 80.40897 
859.10643 35.41881 141.30259 31.67170 116.10767 30.54156 80.29541 
859.51835 35.39886 141.32440 31.63857 116.21893 30.54650 80.37711 
859.93022 35.43617 141.30328 31.62316 116.15157 30.50534 80.36660 
860.34205 35.41528 141.44006 31.62849 116.19474 30.46656 80.38534 
860.75382 35.37160 141.28240 31.62719 116.19464 30.49126 80.39896 
861.16554 35.40697 141.30644 31.63444 116.07280 30.51866 80.37068 
861.57721 35.39017 141.29564 31.62307 116.18275 30.45893 80.42572 
861.98883 35.39163 141.32136 31.62107 116.19604 30.49413 80.41077 
862.40041 35.34572 141.35752 31.60949 116.13727 30.45018 80.42716 
862.81193 35.35731 141.31116 31.60516 116.12023 30.41314 80.44192 
863.22340 35.35085 141.37770 31.62661 116.18880 30.41639 80.39911 
863.63481 35.35956 141.35244 31.62577 116.13773 30.40193 80.41503 
864.04618 35.35268 141.36606 31.58499 116.18150 30.40109 80.36982 
864.45750 35.32501 141.21707 31.56881 116.20244 30.37371 80.42438 
864.86877 35.34184 141.35008 31.57508 116.17502 30.34037 80.47904 
865.27998 35.33503 141.29030 31.58852 116.08048 30.36236 80.45560 
865.69115 35.30573 141.46989 31.54447 116.20985 30.32069 80.45515 
866.10226 35.30360 141.24896 31.55080 116.21837 30.28751 80.48193 
866.51332 35.30935 141.37677 31.54484 116.20115 30.30328 80.46976 
866.92433 35.29056 141.32237 31.54288 116.28722 30.28085 80.46695 
867.33529 35.27774 141.37772 31.53115 116.25567 30.27638 80.49536 
867.74620 35.26889 141.33738 31.51441 116.20100 30.25854 80.44902 
868.15705 35.23819 141.39002 31.49884 116.33839 30.25397 80.49382 
868.56786 35.28795 141.37732 31.49356 116.33097 30.21458 80.52108 
868.97861 35.25324 141.37903 31.50909 116.18769 30.24084 80.50187 
869.38931 35.26560 141.34803 31.48328 116.28570 30.20646 80.53576 
869.79996 35.20784 141.47902 31.46329 116.28275 30.16379 80.64360 
870.21056 35.23183 141.36523 31.43767 116.34347 30.13381 80.62983 
870.62110 35.20135 141.36390 31.45416 116.35450 30.17351 80.50217 
871.03159 35.20423 141.65022 31.42727 116.27099 30.16838 80.58599 
871.44204 35.22984 141.49228 31.40170 116.47368 30.12783 80.56071 
871.85242 35.14789 141.65137 31.37573 116.41049 30.11218 80.57625 
872.26276 35.15854 141.56610 31.38356 116.38055 30.12954 80.56588 
872.67304 35.15827 141.53051 31.37616 116.44904 30.09667 80.63504 
873.08328 35.16073 141.60936 31.36340 116.41894 30.01787 80.64114 
873.49346 35.14305 141.61874 31.32078 116.49309 30.05362 80.65001 
873.90358 35.14749 141.55880 31.32294 116.52500 30.01757 80.63927 
874.31366 35.15389 141.63140 31.27124 116.63022 30.01345 80.67811 
874.72368 35.10366 141.70255 31.27276 116.52029 30.01731 80.61293 
875.13365 35.10934 141.71018 31.26696 116.50245 29.95512 80.71045 
875.54356 35.10442 141.74758 31.25535 116.58789 30.01039 80.68701 
875.95342 35.07965 141.73699 31.22773 116.60220 29.98065 80.69914 
876.36323 35.07855 141.71665 31.22240 116.56998 29.96796 80.64636 
876.77299 35.08274 141.70347 31.18551 116.73684 29.94723 80.80687 
877.18269 35.06344 141.88789 31.17629 116.66894 29.90701 80.72892 
877.59234 35.06389 141.84896 31.13096 116.79635 29.90453 80.71992 
878.00194 35.07905 141.83009 31.13608 116.81216 29.85847 80.76204 
878.41149 35.06812 141.79536 31.12119 116.72347 29.87164 80.75409 
878.82098 35.05070 141.95294 31.12368 116.71855 29.86967 80.73461 
879.23041 35.04646 141.88992 31.12082 116.78203 29.90432 80.74050 
879.63980 35.00318 141.95515 31.07153 116.88542 29.86028 80.72963 
880.04912 35.03068 141.89358 31.09074 116.85084 29.84203 80.71170 
880.45840 34.98794 142.02843 31.06065 116.86309 29.84570 80.74846 
880.86762 34.97013 141.93606 31.01289 116.90572 29.79888 80.79616 
881.27679 34.96955 142.11331 31.00531 116.90725 29.77082 80.81785 
881.68590 34.98638 141.97642 31.00899 116.91669 29.78843 80.84275 
882.09496 34.95946 141.96870 31.00871 116.89492 29.72986 80.86638 
882.50397 34.92414 141.94977 31.00769 117.01825 29.69547 80.85247 
882.91292 34.92471 142.08298 30.95643 117.03048 29.70106 80.86937 
883.32182 34.92383 142.05098 30.97589 116.92703 29.72477 80.83639 
883.73066 34.92666 142.07889 30.97401 117.00309 29.66999 80.90990 
884.13945 34.89625 142.06710 30.93216 117.07871 29.68764 80.85864 
884.54818 34.87750 142.11796 30.95920 117.03530 29.66604 80.93962 
884.95686 34.90858 142.00456 30.93658 117.02294 29.64734 81.01384 
885.36549 34.86143 142.21564 30.91838 117.09860 29.60234 80.99204 
885.77406 34.83489 142.10224 30.89482 117.12390 29.65368 80.94534 
886.18257 34.82900 142.14724 30.89039 117.14179 29.62664 81.03900 
886.59103 34.81548 142.15110 30.85354 117.13322 29.58157 81.00478 
886.99944 34.82393 142.21227 30.83843 117.28214 29.59263 81.07184 
887.40779 34.83113 142.23522 30.87078 117.21479 29.56916 81.00208 
887.81609 34.81764 142.28838 30.84186 117.27893 29.60286 81.05902 
888.22433 34.77145 142.37938 30.82539 117.19839 29.55124 81.04151 
888.63251 34.78958 142.29141 30.82990 117.22289 29.55782 81.08790 
889.04064 34.74789 142.33883 30.76335 117.24511 29.56101 81.05315 
889.44871 34.76981 142.35159 30.80985 117.20264 29.53199 81.04412 
889.85673 34.77049 142.46596 30.79466 117.22311 29.51440 81.04293 
890.26470 34.74846 142.40734 30.75971 117.33841 29.50119 81.09876 
890.67260 34.77469 142.57205 30.74550 117.34399 29.52269 81.05334 
891.08045 34.73988 142.47679 30.74130 117.31265 29.46390 81.12767 
891.48825 34.74242 142.46221 30.74575 117.37185 29.47483 81.16265 
891.89599 34.72987 142.44290 30.74905 117.30864 29.47493 81.13706 
892.30367 34.71326 142.55897 30.70315 117.37553 29.42119 81.17473 
892.71130 34.71058 142.59620 30.69321 117.38661 29.43379 81.10365 
893.11887 34.71182 142.59334 30.70365 117.40220 29.44216 81.10074 
893.52639 34.70003 142.40557 30.71135 117.31402 29.37894 81.11397 
893.93385 34.73040 142.49364 30.65735 117.53743 29.39632 81.13696 
894.34125 34.69291 142.54362 30.68742 117.46649 29.37945 81.15391 
894.74860 34.66430 142.56440 30.68343 117.46031 29.36901 81.21903 
895.15589 34.67864 142.59069 30.68712 117.45639 29.35277 81.12977 
895.56312 34.69037 142.60816 30.65268 117.41582 29.33752 81.14287 
895.97030 34.63523 142.52815 30.63822 117.52120 29.33260 81.17475 
896.37742 34.67798 142.56176 30.62803 117.49377 29.29631 81.12377 
896.78448 34.66842 142.62110 30.61822 117.48852 29.31300 81.20811 
897.19149 34.64071 142.58391 30.61131 117.48383 29.28484 81.23382 
897.59844 34.63796 142.55862 30.61150 117.42831 29.29529 81.20760 
898.00533 34.63975 142.44949 30.56778 117.53911 29.29068 81.17542 
898.41217 34.62275 142.77413 30.56194 117.54207 29.30102 81.26567 
898.81894 34.60795 142.61988 30.54638 117.61714 29.23807 81.20121 
899.22567 34.60704 142.62493 30.53283 117.66903 29.23095 81.13899 
899.63233 34.60393 142.59448 30.51636 117.66469 29.22213 81.26936 
900.03893 34.62043 142.63471 30.53850 117.62110 29.18973 81.31953 
900.44548 34.59367 142.59617 30.53375 117.68480 29.17228 81.23514 
900.85197 34.59829 142.72919 30.49074 117.62484 29.16205 81.25054 
901.25841 34.55329 142.70814 30.46834 117.69526 29.14658 81.32833 
901.66478 34.56170 142.76099 30.49854 117.64367 29.16794 81.27492 
902.07110 34.54303 142.70618 30.48171 117.68412 29.14473 81.33393 
902.47736 34.54297 142.79175 30.45316 117.69388 29.13004 81.24309 
902.88356 34.55287 142.80792 30.47443 117.69439 29.11007 81.36498 
903.28970 34.51355 142.74248 30.42472 117.75228 29.06773 81.36605 
903.69579 34.53120 142.79535 30.44155 117.70556 29.06776 81.39202 
904.10182 34.51670 142.78322 30.46630 117.74785 29.07379 81.32987 
904.50779 34.49440 142.88859 30.40878 117.83783 29.06299 81.38288 
904.91370 34.50319 142.88783 30.40894 117.82777 29.04689 81.29205 
905.31955 34.46390 142.80944 30.39982 117.77444 29.01806 81.40901 
905.72534 34.46925 142.78662 30.41264 117.78783 29.03976 81.36555 
906.13108 34.45870 142.93926 30.37269 117.80011 29.03650 81.43232 
906.53675 34.45458 142.91785 30.37888 117.84603 29.02519 81.40716 
906.94237 34.43377 142.92281 30.35581 117.91846 28.99707 81.38492 
907.34793 34.44043 142.90257 30.35688 117.93804 28.98380 81.45849 
907.75343 34.44801 142.86682 30.34400 117.80127 28.96183 81.42942 
908.15887 34.41773 142.87209 30.36085 117.87970 28.96595 81.35837 
908.56425 34.42132 142.99630 30.29310 117.90091 28.93740 81.45733 
908.96957 34.40259 142.93857 30.31490 117.92046 28.95705 81.44948 
909.37483 34.41193 142.97322 30.30212 117.96308 28.92063 81.41976 
909.78004 34.37440 142.96271 30.29672 117.93994 28.92451 81.50063 
910.18518 34.37491 142.93563 30.26910 117.98471 28.91079 81.44365 
910.59027 34.37548 142.98289 30.28849 117.92698 28.87001 81.44713 
910.99529 34.37983 143.04439 30.26917 118.01272 28.85048 81.52940 
911.40025 34.38763 142.95783 30.27765 117.90405 28.87179 81.49341 
911.80516 34.35169 143.02100 30.26070 117.99135 28.82883 81.52477 
912.21001 34.36994 143.02106 30.21966 118.04650 28.81836 81.54329 
912.61479 34.33605 143.01910 30.21539 118.03976 28.81509 81.49517 
913.01952 34.33584 143.07056 30.22347 118.13728 28.82502 81.51794 
913.42418 34.32111 143.10500 30.18644 118.13370 28.80366 81.53486 
913.82879 34.34574 143.06472 30.21303 118.06937 28.78494 81.58670 
914.23333 34.32168 143.06973 30.20059 118.14582 28.80345 81.55524 
914.63782 34.31287 143.13749 30.17794 118.06596 28.76082 81.53574 
915.04224 34.31462 143.17443 30.16073 118.22595 28.70820 81.50285 
915.44660 34.30455 142.91523 30.15767 118.20179 28.74152 81.56805 
915.85091 34.28697 143.01503 30.16368 118.19979 28.74975 81.56829 
916.25515 34.27912 143.17872 30.14470 118.18356 28.75730 81.56988 
916.65933 34.27911 143.14842 30.10768 118.32921 28.71098 81.60472 
917.06345 34.26621 143.14075 30.10127 118.18804 28.71046 81.66820 
917.46751 34.26638 143.06120 30.13081 118.26397 28.72452 81.64052 
917.87151 34.24638 143.19889 30.09850 118.26802 28.67626 81.59280 
918.27545 34.25669 143.15626 30.07661 118.27868 28.70591 81.62167 
918.67932 34.23888 143.20499 30.05797 118.27844 28.64434 81.67067 
919.08314 34.24514 143.14648 30.05638 118.30925 28.66483 81.69759 
919.48689 34.23380 143.22576 30.07106 118.34606 28.67708 81.73330 
919.89058 34.23957 143.16681 30.07186 118.31206 28.63163 81.72883 
920.29422 34.20258 143.19830 30.03993 118.37869 28.57038 81.72962 
920.69778 34.22885 143.25254 30.04789 118.36744 28.59057 81.78352 
921.10129 34.19937 143.21125 30.03736 118.40251 28.60415 81.71022 
921.50474 34.19275 143.22015 30.03914 118.45689 28.57436 81.79860 
921.90812 34.18957 143.25874 30.00136 118.45640 28.56607 81.76040 
922.31144 34.18603 143.36986 30.00806 118.51568 28.56956 81.73107 
922.71470 34.19573 143.36856 30.01693 118.48335 28.53560 81.80409 
923.11790 34.18855 143.38760 29.96738 118.57750 28.55806 81.77011 
923.52104 34.19783 143.40181 29.96701 118.52533 28.52718 81.80277 
923.92411 34.17905 143.36603 29.94852 118.53913 28.52838 81.79086 
924.32712 34.18715 143.42452 29.92412 118.55776 28.49668 81.88156 
924.73007 34.16035 143.38255 29.92262 118.65998 28.46185 81.83023 
925.13296 34.15432 143.41056 29.95233 118.57309 28.46710 81.78744 
925.53578 34.13039 143.40654 29.94746 118.64463 28.46578 81.85999 
925.93854 34.13009 143.49567 29.90146 118.64713 28.47006 81.82251 
926.34124 34.14927 143.48041 29.89646 118.66269 28.46880 81.90321 
926.74387 34.14774 143.53013 29.93073 118.67257 28.45345 81.86393 
927.14645 34.13313 143.49072 29.89952 118.72987 28.41424 81.86823 
927.54896 34.16853 143.45479 29.85622 118.75214 28.41451 81.87027 
927.95140 34.13411 143.43221 29.87375 118.77753 28.39553 81.89030 
928.35378 34.15156 143.43787 29.87012 118.74178 28.39457 81.92968 
928.75610 34.13729 143.45757 29.87359 118.71500 28.39214 81.93477 
929.15836 34.13726 143.55625 29.84137 118.80830 28.41200 81.92258 
929.56055 34.12960 143.60533 29.82856 118.88618 28.36051 81.94870 
929.96268 34.10596 143.50121 29.84265 118.71994 28.36112 81.88769 
930.36475 34.11783 143.47838 29.81921 118.89906 28.31154 82.06104 
930.76675 34.10123 143.53937 29.79413 118.93948 28.35998 81.99118 
931.16869 34.12327 143.64506 29.80626 118.88287 28.29585 82.07875 
931.57056 34.09667 143.60029 29.79393 118.87805 28.33171 81.89675 
931.97237 34.09417 143.55016 29.78600 118.87382 28.33274 82.01164 
932.37412 34.08495 143.55820 29.78200 118.93701 28.35334 82.01259 
932.77580 34.09646 143.47091 29.76879 118.90614 28.27998 82.00451 
933.17742 34.06078 143.52371 29.75064 119.01810 28.28621 82.07802 
933.57897 34.06088 143.48797 29.76022 118.92613 28.26519 82.06645 
933.98046 34.07770 143.63400 29.72015 118.95552 28.26854 82.14304 
934.38188 34.07737 143.61446 29.74131 118.92480 28.29193 82.07585 
934.78324 34.08522 143.60869 29.69383 119.01086 28.25917 82.10300 
935.18454 34.01451 143.55402 29.70682 118.96633 28.23741 82.23098 
935.58577 34.03977 143.65644 29.73277 119.01498 28.21208 82.12204 
935.98694 34.03997 143.56209 29.70645 119.03824 28.24909 82.23365 
936.38804 34.01395 143.67131 29.65207 119.14345 28.16982 82.20448 
936.78907 34.03902 143.51690 29.68716 119.10155 28.22362 82.18032 
937.19004 34.02704 143.37297 29.68606 119.06625 28.19175 82.18377 
937.59095 33.97958 143.72672 29.66470 119.12138 28.19619 82.20201 
937.99179 34.03440 143.60672 29.63390 119.15434 28.16954 82.26368 
938.39256 34.04657 143.66917 29.68051 119.11584 28.16738 82.24935 
938.79327 33.98959 143.74393 29.63074 119.28008 28.13911 82.27205 
939.19392 33.97235 143.67385 29.65121 119.18141 28.12716 82.41246 
939.59449 33.96774 143.77128 29.57058 119.21908 28.10742 82.33922 
939.99501 33.97012 143.77912 29.58222 119.25013 28.08463 82.34217 
940.39545 33.93329 143.74276 29.60593 119.16157 28.06086 82.24050 
940.79583 33.93568 143.76231 29.58531 119.30347 28.12204 82.36548 
941.19615 33.92071 143.87127 29.57139 119.24879 28.08240 82.29399 
941.59640 34.00300 143.61941 29.59725 119.20381 28.08072 82.37943 
941.99658 34.00669 143.45584 29.59735 119.32436 28.10061 82.34796 
942.39670 33.95593 143.85443 29.60043 119.34118 28.01765 82.38480 
942.79675 33.94243 143.77500 29.56859 119.31535 27.99027 82.38062 
943.19673 33.89340 143.70723 29.54492 119.34501 27.96191 82.33248 
943.59665 33.86473 143.72161 29.58271 119.33406 28.00127 82.34451 
943.99650 33.91312 143.96263 29.51852 119.31869 27.99198 82.39872 
944.39628 33.90980 143.63263 29.56812 119.33953 27.94393 82.43195 
944.79600 33.87035 143.80932 29.51244 119.36399 27.98332 82.51786 
945.19565 33.89728 143.90130 29.55236 119.32528 27.98930 82.29484 
945.59523 33.88852 143.88727 29.49281 119.45874 27.95998 82.33504 
945.99475 33.84348 143.78070 29.48061 119.50134 27.93504 82.50915 
946.39419 33.84984 143.95851 29.47837 119.53461 27.89408 82.45406 
946.79358 33.87353 143.72824 29.48449 119.37250 27.87461 82.49797 
947.19289 33.81618 144.02736 29.46217 119.55554 27.90560 82.37109 
947.59214 33.85493 143.95532 29.43093 119.59148 27.86242 82.45499 
947.99132 33.84288 144.03645 29.45495 119.49790 27.87625 82.42118 
948.39043 33.78998 143.98498 29.49437 119.49856 27.89626 82.42632 
948.78947 33.78337 144.17030 29.42254 119.49922 27.79064 82.49374 
949.18845 33.76553 144.27178 29.40814 119.54313 27.85383 82.50408 
949.58736 33.75264 143.87956 29.37242 119.63858 27.75653 82.45206 
949.98620 33.79673 144.07869 29.38133 119.77557 27.79977 82.54110 
950.38497 33.76989 144.15830 29.32648 119.79392 27.75036 82.52110 
950.78368 33.75881 144.00632 29.38851 119.67423 27.83158 82.53277 
951.18231 33.76743 144.06778 29.36081 119.79040 27.75313 82.57039 
951.58088 33.75486 144.28471 29.34529 119.68179 27.71544 82.53155 
951.97938 33.76033 143.87983 29.35553 119.80868 27.77649 82.49359 
952.37781 33.74483 144.05530 29.32753 119.86919 27.71941 82.52329 
952.77617 33.69084 144.13461 29.38266 119.64171 27.69109 82.56060 
953.17447 33.72009 144.15775 29.37482 119.69445 27.70186 82.62124 
953.57269 33.70445 144.02736 29.32481 119.83699 27.67773 82.58105 
953.97085 33.68060 144.08528 29.32162 119.81202 27.65144 82.62045 
954.36893 33.71039 144.14449 29.28944 119.81926 27.63756 82.56319 
954.76695 33.71622 144.10897 29.30885 119.86378 27.65939 82.56264 
955.16490 33.71336 144.21806 29.30633 119.88864 27.65201 82.59306 
955.56278 33.70931 144.16248 29.34622 119.69349 27.61679 82.61905 
955.96059 33.69441 144.13214 29.29078 119.86235 27.64860 82.59399 
956.35833 33.68389 144.27411 29.29720 119.85003 27.59855 82.64460 
956.75601 33.68626 144.25506 29.29356 119.96654 27.60979 82.60184 
957.15361 33.67681 144.28002 29.26843 119.89452 27.62270 82.61792 
957.55114 33.66234 144.31194 29.28579 119.90682 27.59741 82.62534 
957.94860 33.68956 144.20160 29.27535 119.89216 27.60514 82.65329 
958.34599 33.63508 144.27347 29.24827 119.97105 27.55272 82.60307 
958.74332 33.63588 144.26981 29.25243 119.91420 27.52129 82.65212 
959.14057 33.63347 144.32164 29.26310 119.99216 27.53970 82.67078 
959.53775 33.63625 144.30095 29.22199 120.00466 27.49944 82.65861 
959.93487 33.65290 144.31739 29.21834 119.94957 27.53742 82.66346 
960.33191 33.63720 144.23782 29.21368 120.02263 27.48273 82.64431 
960.72888 33.63189 144.30816 29.19079 120.11629 27.50322 82.71620 
961.12578 33.61460 144.33917 29.17558 120.14226 27.49242 82.66581 
961.52261 33.64397 144.38637 29.17393 120.01716 27.50393 82.73069 
961.91937 33.63293 144.37900 29.19695 120.02891 27.47083 82.70508 
962.31606 33.62106 144.34951 29.17377 120.08718 27.49679 82.67539 
962.71268 33.63376 144.24406 29.15707 120.07305 27.45714 82.75109 
963.10923 33.62606 144.37304 29.15200 120.19437 27.44325 82.76478 
963.50570 33.59927 144.41725 29.14946 120.03884 27.45673 82.74030 
963.90211 33.60043 144.34274 29.09958 120.22307 27.43051 82.74723 
964.29844 33.62212 144.36895 29.13066 120.15703 27.42715 82.69914 
964.69470 33.61157 144.40473 29.11634 120.12792 27.36124 82.79978 
965.09089 33.59520 144.39898 29.10311 120.11979 27.39569 82.72829 
965.48701 33.60155 144.40860 29.08051 120.21685 27.40664 82.74590 
965.88306 33.59171 144.41140 29.08699 120.21237 27.37086 82.78522 
966.27904 33.57377 144.46074 29.05909 120.23179 27.36938 82.81518 
966.67494 33.58328 144.44727 29.06613 120.23791 27.40045 82.82116 
967.07077 33.58740 144.39806 29.05459 120.25923 27.33336 82.81795 
967.46653 33.56929 144.45104 29.06734 120.24572 27.32961 82.85115 
967.86222 33.60023 144.44450 29.06471 120.17830 27.32618 82.84617 
968.25784 33.54677 144.41541 29.04845 120.21642 27.31447 82.88087 
968.65338 33.56532 144.46065 29.03992 120.20337 27.32289 82.88897 
969.04885 33.55420 144.44749 29.01463 120.29121 27.27333 82.85462 
969.44425 33.57540 144.51284 29.02285 120.32600 27.28584 82.89503 
969.83958 33.55255 144.46465 29.01141 120.26166 27.30769 82.91994 
970.23483 33.54549 144.56446 29.00211 120.24007 27.30037 82.90703 
970.63001 33.55739 144.45913 28.97070 120.36055 27.29878 82.90813 
971.02512 33.52547 144.57780 29.00289 120.27440 27.27472 82.94216 
971.42016 33.52913 144.56215 28.98628 120.31122 27.27999 82.94028 
971.81512 33.50228 144.56839 28.97814 120.41966 27.22145 82.97670 
972.21001 33.51314 144.56403 28.97084 120.30469 27.26130 82.97982 
972.60482 33.52168 144.55376 28.98738 120.31619 27.26511 82.97089 
972.99957 33.49688 144.61060 28.94823 120.41220 27.23493 83.01805 
973.39424 33.50571 144.51269 28.94293 120.40025 27.24109 82.99360 
973.78883 33.51979 144.52327 28.93585 120.40177 27.23196 83.02188 
974.18335 33.50898 144.60856 28.95192 120.30740 27.21387 83.08966 
974.57780 33.52172 144.51942 28.93469 120.40582 27.19219 83.07165 
974.97218 33.49402 144.58614 28.92539 120.44334 27.20189 83.08403 
975.36648 33.49712 144.54721 28.92024 120.41124 27.17552 83.10387 
975.76070 33.47452 144.61750 28.92203 120.45310 27.20305 83.12806 
976.15486 33.49146 144.59501 28.91614 120.48168 27.17669 83.13512 
976.54893 33.48687 144.61885 28.90665 120.49568 27.18252 83.10912 
976.94294 33.46840 144.59635 28.89660 120.49761 27.15976 83.15102 
977.33687 33.49437 144.57678 28.88762 120.55135 27.14566 83.18670 
977.73072 33.47792 144.56846 28.86434 120.54813 27.14136 83.18702 
978.12450 33.45378 144.65861 28.86819 120.52398 27.14785 83.17830 
978.51821 33.46407 144.70009 28.86809 120.54104 27.12171 83.20748 
978.91184 33.46274 144.72697 28.84645 120.62059 27.12524 83.22565 
979.30540 33.45790 144.67966 28.85246 120.62742 27.09927 83.19168 
979.69888 33.46128 144.63988 28.83783 120.57583 27.07784 83.25289 
980.09228 33.44226 144.71449 28.83764 120.58683 27.07205 83.21548 
980.48562 33.43773 144.77131 28.83055 120.60025 27.09800 83.24189 
980.87887 33.41662 144.77351 28.81348 120.64998 27.05841 83.30502 
981.27205 33.43500 144.72750 28.82523 120.63694 27.04090 83.34106 
981.66516 33.42717 144.81869 28.78345 120.68261 27.05048 83.30558 
982.05819 33.41312 144.83756 28.80450 120.64124 27.03955 83.31846 
982.45114 33.39405 144.80062 28.79772 120.65940 27.02924 83.35240 
982.84402 33.41264 144.71719 28.77587 120.65922 26.98900 83.32087 
983.23682 33.39572 144.84340 28.78089 120.69052 26.99792 83.34776 
983.62955 33.40175 144.85593 28.76121 120.68339 26.99800 83.36644 
984.02220 33.38734 144.84241 28.76020 120.70508 26.99652 83.38891 
984.41477 33.39048 144.86520 28.75355 120.70881 26.97430 83.40305 
984.80727 33.36698 144.89238 28.72980 120.73941 26.94549 83.39742 
985.19969 33.35219 144.86803 28.73238 120.71916 26.92663 83.41994 
985.59204 33.35075 144.89325 28.72819 120.75042 26.93611 83.44065 
985.98430 33.34313 144.89014 28.71933 120.79469 26.90316 83.46637 
986.37650 33.33234 145.01263 28.69728 120.81107 26.89414 83.44768 
986.76861 33.33236 144.97612 28.70474 120.77516 26.90141 83.47391 
987.16065 33.32433 144.92752 28.68355 120.82578 26.91371 83.48110 
987.55261 33.32089 144.97542 28.67881 120.82327 26.88540 83.48341 
987.94450 33.32535 145.02144 28.67135 120.80688 26.87928 83.47335 
988.33630 33.29840 145.05215 28.66629 120.92857 26.85402 83.46487 
988.72803 33.29880 145.07167 28.67206 120.85184 26.85694 83.52459 
989.11969 33.27409 145.12001 28.64425 120.90485 26.85351 83.49004 
989.51126 33.29198 145.11464 28.66496 120.90765 26.82867 83.52151 
989.90276 33.27129 145.14796 28.65076 120.92649 26.84335 83.52319 
990.29418 33.26885 145.12369 28.64190 120.92689 26.82915 83.52638 
990.68552 33.28980 145.13791 28.62232 120.96803 26.82277 83.57618 
991.07679 33.27845 145.20036 28.62977 120.99232 26.80747 83.53836 
991.46798 33.25575 145.17535 28.61657 121.00056 26.78707 83.55700 
991.85909 33.26737 145.15627 28.62278 120.99574 26.77878 83.56586 
992.25012 33.24526 145.21991 28.61327 121.04321 26.80200 83.56295 
992.64107 33.25271 145.20256 28.60623 121.04793 26.77457 83.60525 
993.03194 33.25716 145.25918 28.59771 121.01269 26.77977 83.59251 
993.42274 33.25028 145.22480 28.58984 121.08406 26.76183 83.61998 
993.81346 33.23960 145.26468 28.60436 121.06873 26.73658 83.60428 
994.20410 33.24768 145.25311 28.58783 121.01272 26.73409 83.63579 
994.59466 33.23084 145.32607 28.59110 121.09457 26.73020 83.63897 
994.98514 33.23098 145.24956 28.59325 121.09769 26.72893 83.64130 
995.37554 33.23139 145.27466 28.58348 121.12418 26.70266 83.65646 
995.76586 33.24480 145.27576 28.55419 121.11339 26.68644 83.67103 
996.15611 33.23676 145.27127 28.55825 121.18342 26.69622 83.69074 
996.54627 33.23922 145.24965 28.55567 121.17955 26.68480 83.69762 
996.93636 33.23281 145.33553 28.57110 121.19770 26.67780 83.73195 
997.32637 33.24537 145.33932 28.54659 121.22741 26.68285 83.73157 
997.71629 33.24621 145.34891 28.54069 121.24880 26.66107 83.72484 
998.10614 33.22832 145.33624 28.53289 121.26538 26.64395 83.71906 
998.49591 33.24272 145.33450 28.55832 121.23904 26.64467 83.73882 
998.88560 33.23535 145.33289 28.53208 121.26011 26.63811 83.74518 
999.27520 33.23826 145.36617 28.52932 121.23263 26.62477 83.75013 
999.66473 33.23008 145.35806 28.50780 121.31322 26.62932 83.78573 
1000.05418 33.23176 145.33422 28.52445 121.24147 26.59953 83.78000 
1000.44355 33.22163 145.39384 28.50880 121.29441 26.59466 83.81388 
1000.83283 33.23109 145.38295 28.51187 121.30363 26.59111 83.80025 
1001.22204 33.21961 145.39917 28.50561 121.34203 26.59038 83.76192 
1001.61117 33.21760 145.33027 28.52047 121.32757 26.58618 83.79618 
1002.00021 33.22076 145.41749 28.49530 121.36363 26.56609 83.80732 
1002.38918 33.21674 145.35228 28.49937 121.33957 26.56622 83.80530 
1002.77806 33.23455 145.35671 28.48478 121.36758 26.58574 83.79715 
1003.16687 33.22098 145.32950 28.49188 121.39335 26.53880 83.81863 
1003.55559 33.21552 145.35145 28.48916 121.35510 26.54193 83.85525 
1003.94423 33.21474 145.33275 28.48463 121.40655 26.51625 83.86648 
1004.33279 33.20596 145.34342 28.48964 121.37517 26.51661 83.87334 
1004.72127 33.20758 145.39518 28.48311 121.42391 26.50293 83.87766 
1005.10966 33.21003 145.38966 28.48286 121.42231 26.49502 83.86431 
1005.49798 33.20139 145.29823 28.45941 121.49039 26.49984 83.86543 
1005.88621 33.19962 145.35888 28.45843 121.50887 26.47099 83.89017 
1006.27437 33.19645 145.37684 28.46251 121.46623 26.46096 83.90426 
1006.66244 33.19465 145.34489 28.45701 121.47102 26.46974 83.87391 
1007.05042 33.18999 145.35668 28.44680 121.50577 26.44458 83.92036 
1007.43833 33.19798 145.31796 28.43615 121.58738 26.46011 83.89769 
1007.82615 33.19059 145.34109 28.44164 121.53562 26.45864 83.91756 
1008.21390 33.18910 145.37426 28.42566 121.53460 26.43059 83.95322 
1008.60156 33.16609 145.30790 28.43662 121.54279 26.44378 83.95195 
1008.98913 33.17325 145.31674 28.42669 121.57693 26.42072 83.95507 
1009.37663 33.17904 145.30094 28.42671 121.57717 26.42326 83.94960 
1009.76404 33.16038 145.35626 28.41329 121.60169 26.39147 83.96736 
1010.15137 33.15372 145.33765 28.39878 121.61961 26.38673 83.99638 
1010.53861 33.15752 145.31287 28.40017 121.61566 26.39511 83.98946 
1010.92578 33.16032 145.31631 28.38715 121.64092 26.36831 84.02790 
1011.31286 33.15608 145.33078 28.38193 121.67051 26.36485 83.99183 
1011.69985 33.14729 145.34033 28.37921 121.68562 26.35070 84.03569 
1012.08677 33.14259 145.35646 28.37069 121.68155 26.33455 84.04121 
1012.47360 33.14369 145.33217 28.37023 121.66903 26.31031 84.05702 
1012.86034 33.14053 145.36675 28.36278 121.69224 26.31545 84.03741 
1013.24701 33.13990 145.39608 28.36416 121.69808 26.31728 84.05840 
1013.63359 33.13359 145.40823 28.34442 121.74895 26.32080 84.08184 
1014.02008 33.12920 145.36558 28.35060 121.72778 26.29748 84.06838 
1014.40649 33.13375 145.38998 28.34162 121.72538 26.29587 84.11099 
1014.79282 33.12125 145.43223 28.32717 121.76325 26.27806 84.11696 
1015.17906 33.12339 145.42729 28.31993 121.82620 26.26755 84.12892 
1015.56522 33.13124 145.42338 28.30897 121.83868 26.27012 84.14810 
1015.95130 33.11853 145.45529 28.30623 121.82557 26.25954 84.17245 
1016.33729 33.11058 145.45973 28.29103 121.85362 26.25565 84.17251 
1016.72319 33.11445 145.44868 28.29249 121.85827 26.24350 84.18684 
1017.10901 33.11663 145.47705 28.28472 121.84606 26.22936 84.19075 
1017.49475 33.11235 145.52448 28.27304 121.89817 26.22038 84.19900 
1017.88040 33.10172 145.50375 28.26177 121.91871 26.20216 84.23208 
1018.26597 33.09747 145.52075 28.25159 121.95113 26.20868 84.22321 
1018.65145 33.09571 145.50236 28.24282 121.95464 26.19316 84.23228 
1019.03685 33.09639 145.56025 28.23246 121.98856 26.18525 84.25891 
1019.42216 33.08969 145.53820 28.22863 121.98613 26.18406 84.23636 
1019.80738 33.08994 145.56293 28.22085 122.02173 26.15725 84.27980 
1020.19252 33.08111 145.57300 28.21164 121.99681 26.16441 84.27362 
1020.57758 33.08286 145.61810 28.20531 122.02050 26.14153 84.29490 
1020.96254 33.06742 145.61511 28.18045 122.07481 26.11412 84.26665 
1021.34743 33.07247 145.62172 28.16771 122.09384 26.11846 84.28104 
1021.73222 33.06226 145.66352 28.16451 122.10035 26.10484 84.29026 
1022.11693 33.06652 145.67380 28.14972 122.11956 26.09031 84.32954 
1022.50156 33.05288 145.67870 28.14096 122.16391 26.08961 84.33433 
1022.88610 33.04569 145.70134 28.13657 122.15254 26.07733 84.32840 
1023.27055 33.03775 145.73312 28.11304 122.19947 26.06471 84.33649 
1023.65491 33.03492 145.73186 28.10247 122.18440 26.04969 84.35223 
1024.03919 33.02474 145.77223 28.10081 122.19498 26.04077 84.37957 
1024.42339 33.02637 145.74513 28.09687 122.21341 26.02909 84.37591 
1024.80749 33.01685 145.79908 28.08048 122.24180 26.01451 84.38183 
1025.19151 33.01604 145.80634 28.08123 122.22906 26.00251 84.39079 
1025.57544 33.00123 145.83640 28.05889 122.28598 26.00278 84.39814 
1025.95929 32.99277 145.84483 28.05584 122.29858 25.98765 84.40752 
1026.34304 32.98642 145.88161 28.04652 122.32550 25.96993 84.42115 
1026.72671 32.98003 145.88445 28.04390 122.31875 25.96847 84.42737 
1027.11029 32.96971 145.90520 28.03122 122.33957 25.95811 84.44287 
1027.49379 32.96535 145.92451 28.02599 122.36022 25.94813 84.43634 
1027.87720 32.95557 145.94417 28.01420 122.39128 25.92714 84.46520 
1028.26052 32.94824 145.97146 28.00855 122.39879 25.92111 84.46026 
1028.64375 32.94338 145.98381 27.99574 122.42896 25.91382 84.46124 
1029.02689 32.93457 146.00654 27.98632 122.46173 25.90516 84.47954 
1029.40995 32.93270 146.02869 27.98375 122.47181 25.89358 84.47654 
1029.79291 32.92359 146.06172 27.97260 122.50037 25.88418 84.49610 
1030.17579 32.91824 146.08439 27.97239 122.51278 25.87299 84.51325 
1030.55858 32.90946 146.09572 27.95882 122.52806 25.87626 84.50842 
1030.94129 32.90233 146.11471 27.95921 122.54258 25.85631 84.53164 
1031.32390 32.89802 146.13505 27.94819 122.56242 25.84443 84.52563 
1031.70642 32.89398 146.17672 27.93988 122.58634 25.83700 84.54672 
1032.08886 32.88505 146.18956 27.94129 122.60350 25.82821 84.54613 
1032.47121 32.87682 146.19575 27.93197 122.61124 25.81783 84.56646 
1032.85347 32.88019 146.25327 27.92491 122.63272 25.80852 84.57857 
1033.23563 32.87309 146.24439 27.92097 122.64747 25.79777 84.58984 
1033.61771 32.87323 146.24143 27.91741 122.64991 25.78748 84.60057 
1033.99970 32.86985 146.25715 27.91220 122.66434 25.78262 84.61166 
1034.38160 32.86392 146.28351 27.90926 122.67964 25.77438 84.62061 
1034.76342 32.86419 146.30032 27.90593 122.68106 25.76308 84.63216 
1035.14514 32.86074 146.32815 27.89858 122.71062 25.75761 84.64527 
1035.52677 32.85686 146.34586 27.89814 122.70910 25.74722 84.66038 
1035.90831 32.85599 146.35336 27.89330 122.71683 25.73694 84.67146 
1036.28976 32.85621 146.36391 27.89462 122.72237 25.72906 84.68505 
1036.67112 32.85389 146.37621 27.89072 122.73718 25.72273 84.69352 
1037.05239 32.85255 146.39762 27.88754 122.75107 25.71431 84.70969 
1037.43357 32.85367 146.39795 27.88502 122.76162 25.70729 84.72622 
1037.81466 32.85117 146.41350 27.88365 122.77152 25.69752 84.73325 
1038.19566 32.85122 146.42926 27.88090 122.77929 25.69028 84.75004 
1038.57657 32.85058 146.43784 27.87834 122.79163 25.68289 84.76045 
1038.95739 32.84772 146.44846 27.87685 122.80136 25.67434 84.76714 
1039.33812 32.84558 146.45811 27.87295 122.81555 25.66646 84.77350 
1039.71875 32.84361 146.46919 27.87073 122.82643 25.65786 84.78164 
1040.09930 32.84089 146.47965 27.86855 122.83763 25.64918 84.78961 
1041.98317 32.82888 146.53463 27.85678 122.89544 25.60780 84.82679 
1045.34447 32.80263 146.64367 27.82319 122.97883 25.53590 84.84739 
1048.72742 32.79145 146.72111 27.78573 123.07076 25.46558 84.87037 
1052.13244 32.78383 146.74839 27.75380 123.21314 25.38110 84.89521 
1055.55954 32.76973 146.78293 27.71698 123.36379 25.28643 84.90733 
1059.00904 32.74748 146.87586 27.66433 123.49966 25.19662 84.93897 
1062.48127 32.71606 147.01314 27.59299 123.64526 25.11571 85.02042 
1065.97622 32.68199 147.14420 27.50953 123.80711 25.03760 85.13275 
1069.49437 32.63616 147.25176 27.44365 123.97033 24.95683 85.26116 
1073.03569 32.57174 147.37930 27.39802 124.11871 24.88595 85.40569 
1076.60055 32.50586 147.52232 27.35522 124.24803 24.82957 85.54831 
1080.18929 32.44404 147.64245 27.32081 124.36031 24.77603 85.69252 
1083.80191 32.38957 147.71265 27.28548 124.45385 24.72690 85.83948 
1087.43890 32.33960 147.74658 27.24307 124.55583 24.68073 85.96237 
1091.10027 32.28334 147.82236 27.19168 124.68647 24.63019 86.04204 
1094.78637 32.23861 147.95646 27.13087 124.81356 24.57233 86.10102 
1098.49758 32.23014 148.07110 27.08339 124.93557 24.49412 86.16973 
1102.23392 32.24999 148.11514 27.04496 125.05250 24.39242 86.21472 
1105.99588 32.26531 148.16945 26.99792 125.13852 24.28713 86.23297 
1109.78349 32.26169 148.29504 26.94143 125.23433 24.18185 86.29830 
1113.59713 32.25203 148.43635 26.87964 125.38517 24.06651 86.43374 
1117.43719 32.23882 148.56808 26.81722 125.55960 23.96000 86.56736 
1121.30371 32.21588 148.70671 26.75765 125.73699 23.88443 86.67484 
1125.19720 32.18941 148.83610 26.70803 125.94463 23.83146 86.79360 
1129.11770 32.15632 148.98140 26.66417 126.20540 23.77745 86.91956 
1133.06561 32.10128 149.14335 26.61403 126.47226 23.72061 87.03438 
1137.04135 32.02958 149.21713 26.55972 126.65828 23.67534 87.09178 
1141.04497 31.96487 149.25143 26.51009 126.81364 23.63236 87.09436 
1145.07701 31.90656 149.35588 26.46280 127.01505 23.58857 87.10098 
1149.13751 31.85931 149.48438 26.42363 127.17954 23.56271 87.14172 
1153.22692 31.85761 149.57846 26.39595 127.25403 23.53385 87.21018 
1157.34566 31.88079 149.65878 26.36438 127.27906 23.46559 87.27003 
1161.49380 31.87282 149.79353 26.32949 127.29419 23.37052 87.35130 
1165.67192 31.84255 149.95146 26.29658 127.36452 23.26528 87.48428 
1169.88007 31.83285 150.04160 26.26326 127.46655 23.15980 87.63656 
1174.11871 31.84421 150.11011 26.22862 127.51942 23.07616 87.79319 
1178.38831 31.84769 150.24489 26.18461 127.56779 23.00643 87.98288 
1182.68894 31.83090 150.42408 26.12840 127.69197 22.92287 88.19148 
1187.02122 31.79918 150.61631 26.05461 127.90848 22.81794 88.36683 
1191.38521 31.76306 150.76218 25.98018 128.12024 22.71509 88.50791 
1195.78141 31.73125 150.81744 25.93044 128.25464 22.62861 88.60479 
1200.21032 31.70777 150.86589 25.88335 128.39477 22.54226 88.69398 
1204.67201 31.68096 150.94601 25.82484 128.57224 22.46249 88.81468 
1209.16714 31.66336 151.06310 25.77711 128.72148 22.40632 88.93866 
1213.69580 31.67372 151.21000 25.74382 128.84437 22.34328 89.04221 
1218.25851 31.67259 151.32510 25.70848 128.99050 22.26047 89.12404 
1222.85580 31.63786 151.38558 25.67804 129.15293 22.20231 89.22847 
1227.48784 31.59602 151.40554 25.65909 129.33492 22.17337 89.34244 
1232.15503 31.56590 151.42790 25.64032 129.51626 22.14746 89.42617 
1236.85793 31.53479 151.50000 25.61841 129.66216 22.11735 89.51770 
1241.59687 31.49576 151.61099 25.58776 129.78804 22.07803 89.62339 
1246.37225 31.46350 151.71814 25.54193 129.94971 22.02138 89.69485 
1251.18452 31.44794 151.79367 25.49606 130.17879 21.95287 89.74929 
1256.03401 31.44931 151.85228 25.47076 130.37857 21.88705 89.83256 
1260.92131 31.45359 151.92171 25.45349 130.49471 21.81385 89.92755 
1265.84680 31.45121 151.98628 25.42617 130.56399 21.72494 90.02764 
1270.81093 31.44302 152.04404 25.38915 130.62661 21.62815 90.12395 
1275.81413 31.43778 152.13817 25.35024 130.72086 21.52727 90.19242 
1280.85681 31.43475 152.25670 25.31581 130.86357 21.42583 90.24743 
1285.93959 31.41797 152.35945 25.27924 131.03548 21.33596 90.31424 
1291.06288 31.39465 152.47582 25.24244 131.18753 21.26100 90.42805 
1296.22714 31.37507 152.62527 25.21027 131.34134 21.19052 90.56844 
1301.43289 31.35351 152.80040 25.17310 131.54269 21.12745 90.69990 
1306.68054 31.33683 152.96684 25.13552 131.73037 21.06606 90.85729 
1311.97076 31.33140 153.09624 25.11087 131.85862 20.99782 91.03965 
1317.30399 31.32706 153.24812 25.08510 132.01385 20.92664 91.20830 
1322.68076 31.31903 153.42077 25.05576 132.19336 20.86114 91.36330 
1328.10160 31.30860 153.56101 25.02573 132.34116 20.81156 91.52105 
1333.56697 31.30310 153.67221 24.98702 132.49805 20.77240 91.68366 
1339.07759 31.30335 153.73568 24.94988 132.65200 20.73311 91.84515 
1344.63395 31.28799 153.74546 24.90836 132.79245 20.68498 91.98298 
1350.23661 31.25501 153.76978 24.86038 132.96753 20.63355 92.08176 
1355.88615 31.22019 153.84634 24.82272 133.18261 20.58052 92.16686 
1361.58308 31.19037 153.91535 24.79182 133.39089 20.51630 92.26876 
1367.32817 31.17436 153.93569 24.76131 133.57070 20.44181 92.39711 
1373.12196 31.16892 153.94451 24.73369 133.73788 20.36689 92.54237 
1378.96505 31.16139 153.98543 24.70198 133.89579 20.29414 92.69799 
1384.85808 31.14990 154.06683 24.66676 134.02771 20.20992 92.85991 
1390.80160 31.13628 154.18025 24.63223 134.15632 20.11908 93.01868 
1396.79645 31.12525 154.32302 24.59314 134.30524 20.03257 93.15878 
1402.84321 31.11505 154.47968 24.55401 134.44320 19.94671 93.27753 
1408.94255 31.10128 154.61747 24.51245 134.59915 19.86790 93.39366 
1415.09515 31.09127 154.73482 24.46950 134.80482 19.79671 93.52352 
1421.30163 31.07907 154.84590 24.43701 134.98841 19.72236 93.67220 
1427.56289 31.05531 154.94784 24.41136 135.10870 19.65716 93.81690 
1433.87956 31.02796 155.05468 24.39102 135.22484 19.60989 93.94798 
1440.25238 31.00198 155.15961 24.36926 135.37541 19.55777 94.08930 
1446.68210 30.98336 155.22981 24.34218 135.51884 19.49308 94.25057 
1453.16938 30.97764 155.28470 24.31978 135.63524 19.42719 94.41418 
1459.71521 30.97320 155.38217 24.29569 135.75643 19.36068 94.57127 
1466.32028 30.96700 155.50648 24.26629 135.87866 19.29135 94.72401 
1472.98539 30.96237 155.61630 24.23681 135.99207 19.22168 94.85535 
1479.71137 30.95349 155.71596 24.20647 136.12075 19.15130 94.96499 
1486.49895 30.94560 155.79978 24.17789 136.26693 19.07516 95.07498 
1493.34920 30.93865 155.88895 24.14960 136.43966 18.98755 95.18701 
1500.26288 30.92435 155.99420 24.11381 136.64562 18.89732 95.28335 
1507.24086 30.90924 156.09388 24.07239 136.85838 18.81774 95.38147 
1514.28407 30.89828 156.20190 24.03553 137.05750 18.74563 95.52110 
1521.39329 30.88847 156.33435 24.00500 137.22965 18.68122 95.68809 
1528.56970 30.87502 156.48241 23.97138 137.39456 18.62052 95.85149 
1535.81413 30.85711 156.63158 23.93100 137.58547 18.55257 96.01659 
1543.12755 30.83811 156.77527 23.89392 137.78734 18.48057 96.19374 
1550.51096 30.81875 156.90944 23.86686 137.97948 18.41366 96.36578 
1557.96525 30.80204 157.05048 23.84246 138.17921 18.34588 96.52786 
1565.49167 30.79331 157.18232 23.81601 138.37415 18.26921 96.69215 
1573.09117 30.78420 157.27092 23.78969 138.54789 18.19082 96.84672 
1580.76481 30.76849 157.34264 23.76214 138.71808 18.11506 96.99980 
1588.51368 30.75620 157.42040 23.73415 138.87399 18.04176 97.17045 
1596.33877 30.74394 157.51171 23.70553 139.02687 17.97169 97.33521 
1604.24146 30.72993 157.59253 23.67344 139.19114 17.90632 97.48416 
1612.22279 30.71985 157.65814 23.64024 139.35202 17.84533 97.64392 
1620.28393 30.70808 157.76914 23.60869 139.52348 17.78005 97.82217 
1628.42609 30.69324 157.93334 23.57709 139.69910 17.70662 97.99960 
1636.65036 30.67582 158.09529 23.54347 139.86696 17.63289 98.16274 
1644.95825 30.65776 158.23615 23.51118 140.05377 17.56243 98.32841 
1653.35092 30.64344 158.37226 23.48242 140.26518 17.49111 98.49991 
1661.82967 30.63243 158.49269 23.45807 140.46351 17.42114 98.66201 
1670.39583 30.62477 158.60792 23.43609 140.63398 17.34938 98.82915 
1679.05062 30.61913 158.73261 23.40971 140.80110 17.27168 99.00323 
1687.79570 30.61164 158.83013 23.37679 140.96946 17.19750 99.16884 
1696.63236 30.62802 159.01143 23.33380 141.40195 17.01795 99.47012 
1705.56203 30.63813 159.18270 23.31233 141.79338 16.84516 99.82133 
1714.58620 30.61866 159.26770 23.29803 141.91959 16.77647 100.02779 
1723.70622 30.60230 159.37525 23.27685 142.07437 16.70052 100.20100 
1732.92393 30.59642 159.46850 23.24921 142.25914 16.62397 100.37680 
1742.24075 30.58840 159.56423 23.21623 142.44548 16.55735 100.56295 
1751.65830 30.57438 159.67084 23.18061 142.62575 16.49329 100.73280 
1761.17821 30.56498 159.77294 23.14473 142.79665 16.42602 100.90057 
1770.80202 30.55844 159.88445 23.10787 142.94891 16.35687 101.08024 
1780.53173 30.55074 160.01191 23.06914 143.11165 16.27611 101.25112 
1790.36895 30.54426 160.13266 23.03322 143.31063 16.18790 101.39327 
1800.31548 30.54138 160.23246 23.00033 143.52359 16.10192 101.54170 
1810.37314 30.54248 160.33927 22.96471 143.72354 16.01400 101.73292 
1820.54364 30.54456 160.45470 22.92902 143.90220 15.93143 101.93514 
1830.82923 30.54471 160.54096 22.90438 144.06565 15.85939 102.13602 
1841.23170 30.53525 160.61620 22.88650 144.24006 15.78554 102.34503 
1851.75306 30.51819 160.71251 22.86476 144.42977 15.71122 102.53622 
1862.39536 30.50333 160.80861 22.84540 144.61114 15.64365 102.71594 
1873.16051 30.48692 160.89751 22.82487 144.78999 15.58108 102.91745 
1884.05101 30.46597 160.99850 22.80236 144.97226 15.52519 103.12284 
1895.06889 30.44574 161.10089 22.78473 145.14460 15.47151 103.31047 
1906.21639 30.42884 161.20154 22.76441 145.31028 15.41655 103.49709 
1917.49581 30.41348 161.31202 22.74065 145.48409 15.35916 103.68520 
1928.90933 30.40077 161.42457 22.71405 145.67373 15.29783 103.85304 
1940.45972 30.39777 161.52779 22.68315 145.85382 15.23789 104.00404 
1952.14928 30.40098 161.62163 22.65277 146.01644 15.17588 104.16447 
1963.98052 30.39647 161.72143 22.62518 146.18497 15.10674 104.34218 
1975.95605 30.38871 161.81154 22.60523 146.34156 15.03773 104.53977 
1988.07833 30.38393 161.87972 22.59346 146.48807 14.97424 104.75993 
2000.35045 30.37848 161.95398 22.58242 146.65954 14.90585 104.98084 
2012.77503 30.37346 162.03737 22.56819 146.84195 14.82839 105.18220 
2025.35491 30.36485 162.12188 22.55181 147.01053 14.75419 105.37121 
2038.09303 30.35058 162.21192 22.53402 147.18154 14.68497 105.56300 
2050.99219 30.33588 162.30531 22.51541 147.36202 14.61412 105.76151 
2064.05588 30.32312 162.40318 22.49280 147.53524 14.53848 105.96162 
2077.28705 30.31157 162.50975 22.46493 147.70695 14.46005 106.15992 
2090.68894 30.30341 162.61938 22.43541 147.88857 14.38613 106.35331 
2104.26489 30.30074 162.73095 22.40547 148.08131 14.31901 106.54211 
2118.01808 30.30163 162.85816 22.37909 148.28015 14.25239 106.74988 
2131.95245 30.29855 162.99389 22.35575 148.48097 14.18140 106.99134 
2146.07138 30.28845 163.12654 22.32978 148.68954 14.10546 107.25319 
2160.37857 30.28250 163.26228 22.30460 148.89617 14.02828 107.52074 
2174.87780 30.28404 163.39840 22.28421 149.10340 13.95665 107.78335 
2189.57274 30.28418 163.52490 22.26359 149.31609 13.88591 108.03497 
2204.46784 30.27721 163.63946 22.24019 149.51218 13.81243 108.27772 
2219.56698 30.26518 163.75371 22.21528 149.70076 13.74398 108.52300 
2234.87439 30.25652 163.86605 22.19017 149.89944 13.67708 108.78199 
2250.39440 30.25398 163.97185 22.16610 150.10329 13.60322 109.06049 
2266.13122 30.24990 164.07720 22.14372 150.30560 13.52816 109.34255 
2282.08994 30.24170 164.18409 22.12720 150.50646 13.45869 109.61560 
2298.27503 30.23614 164.30156 22.11733 150.71740 13.39278 109.87605 
2314.69133 30.23227 164.43390 22.10977 150.94362 13.32323 110.12658 
2331.34384 30.22365 164.57082 22.09880 151.16832 13.24729 110.39312 
2348.23742 30.20840 164.70025 22.08038 151.37686 13.16923 110.67215 
2365.37789 30.19258 164.81972 22.05477 151.58732 13.09093 110.94082 
2382.77043 30.18301 164.94161 22.02530 151.80320 13.01239 111.19071 
2400.42064 30.17397 165.06388 21.99605 152.00224 12.93757 111.41440 
2418.33428 30.16017 165.17110 21.96781 152.17812 12.86706 111.63264 
2436.51701 30.15051 165.25639 21.94178 152.33506 12.80090 111.87235 
2454.97568 30.15176 165.32413 21.91403 152.48619 12.74178 112.12744 
2473.71586 30.16106 165.38054 21.88499 152.62887 12.68542 112.38457 
2492.74451 30.17446 165.44530 21.86019 152.78759 12.62438 112.65491 
2512.06802 30.18491 165.53409 21.84155 152.97825 12.56172 112.94298 
2531.69361 30.19052 165.63807 21.83343 153.17459 12.50161 113.24764 
2551.62827 30.19386 165.75113 21.83341 153.39308 12.43661 113.57447 
2571.87919 30.19467 165.86292 21.83068 153.62944 12.36402 113.89735 
2592.45429 30.19192 165.98333 21.82054 153.84838 12.28684 114.20408 
2613.36108 30.18325 166.12145 21.80771 154.05854 12.20903 114.49299 
2634.60798 30.16769 166.24786 21.79371 154.27395 12.13412 114.75232 
2656.20320 30.14961 166.37005 21.77731 154.48153 12.05747 115.00472 
2678.15519 30.13338 166.50427 21.75829 154.68426 11.97973 115.25681 
2700.47322 30.12015 166.62019 21.73834 154.88077 11.90472 115.50624 
2723.16616 30.11116 166.69456 21.71880 155.05118 11.83576 115.75183 
2746.24391 30.10363 166.73538 21.69731 155.20592 11.77754 115.97660 
2769.71616 30.09876 166.77132 21.67876 155.36665 11.72367 116.20146 
2793.59291 30.09859 166.83042 21.66310 155.55628 11.66341 116.47178 
2817.88509 30.09410 166.88737 21.64718 155.75848 11.59860 116.78888 
2842.60327 30.08468 166.92945 21.63441 155.96949 11.53267 117.13206 
2867.75913 30.07454 166.99434 21.61726 156.20679 11.46463 117.48990 
2893.36420 30.06350 167.08997 21.58857 156.42232 11.39222 117.84275 
2919.43042 30.05672 167.21495 21.55682 156.62020 11.31350 118.19335 
2945.97078 30.05164 167.36249 21.53010 156.85811 11.23768 118.54088 
2972.99791 30.03861 167.50901 21.51025 157.10331 11.16576 118.89458 
3000.52575 30.02480 167.66309 21.49368 157.32381 11.08931 119.28693 
3028.56814 30.02225 167.82687 21.47736 157.54638 11.01316 119.68871 
3057.13940 30.02735 167.98359 21.46964 157.73875 10.94061 120.05403 
3086.25510 30.03223 168.12927 21.47111 157.89682 10.87541 120.37863 
3115.93049 30.03671 168.26331 21.46670 158.09314 10.81874 120.70629 
3146.18234 30.04442 168.38631 21.45350 158.33977 10.76136 121.08590 
3177.02736 30.04871 168.49997 21.43928 158.58657 10.70310 121.48680 
3208.48293 30.03166 168.58890 21.41998 158.82110 10.64432 121.86791 
3240.56786 30.00408 168.68289 21.37761 159.04057 10.57365 122.24799 
3273.30071 30.01884 169.08335 21.34665 159.32236 10.46076 122.86909 
3306.70184 30.02807 169.40202 21.31960 159.51814 10.37530 123.34112 
3340.79166 30.03950 169.66790 21.29889 159.69783 10.30230 123.73083 
3375.59141 30.05056 169.90088 21.28317 159.86554 10.24175 124.05766 
3411.12406 30.05532 170.11707 21.27274 159.97548 10.18710 124.35812 
3447.41244 30.06307 170.33591 21.26811 160.04462 10.13237 124.66103 
3484.48151 30.08510 170.58744 21.26977 160.10728 10.07810 124.96272 
